Frequency,Impedance,Phase Angle,Temperature (Dry Bath)
10.0,2389292.0,-0.1488689,71.0821
21.544346900318832,1815598.0,-14.24614,71.0925
46.41588833612777,2541241.0,-20.06341,71.0883
100.0,353006.6,72.54512,71.0786
215.44346900318823,1251054.0,128.5202,71.097
464.15888336127773,704882.7,-113.3683,71.1024
1000.0,273202.0,-63.19495,71.1001
2154.4346900318824,798731.9,-25.8187,71.1036
4641.588833612777,261925.7,-70.25156,71.0986
10000.0,97590.38,-104.6092,71.09
