Frequency,Impedance,Phase Angle,Temperature (Dry Bath)
10.0,4614271.0,-21.39147,71.4563
21.544346900318832,4610523.0,-2.657172,71.4696
46.41588833612777,3957699.0,-43.65535,71.4554
100.0,312084.8,11.0345,71.4576
215.44346900318823,558412.3,-54.41498,71.4652
464.15888336127773,647154.4,-44.84179,71.4573
1000.0,291542.9,-137.1955,71.4589
2154.4346900318824,323430.3,-98.4301,71.4648
4641.588833612777,123484.6,-78.44661,71.4703
10000.0,60361.47,-84.28042,71.4591
