Frequency,Impedance,Phase Angle,Temperature (Dry Bath)
10.0,95832.45,-17.74225,71.387
21.544346900318832,84500.55,-17.13219,71.3852
46.41588833612777,72945.65,-16.79112,71.3874
100.0,64931.82,-12.55421,71.3842
215.44346900318823,60801.48,-14.56435,71.3991
464.15888336127773,48859.92,-13.80679,71.3836
1000.0,43649.44,-16.14406,71.3963
2154.4346900318824,39574.19,-15.96714,71.3829
4641.588833612777,35547.3,-15.26627,71.3973
10000.0,32001.08,-21.73652,71.3979
