Frequency,Impedance,Phase Angle,Temperature (Dry Bath)
10.0,842277.8,-2.941183,71.2253
21.544346900318832,795951.8,-7.390629,71.2233
46.41588833612777,797860.1,-5.753585,71.2222
100.0,421212.1,14.44901,71.2234
215.44346900318823,549924.1,70.86025,71.226
464.15888336127773,317622.5,-27.24633,71.2263
1000.0,259383.2,-9.385842,71.229
2154.4346900318824,297195.5,-56.84629,71.2174
4641.588833612777,330900.5,-58.8214,71.2372
10000.0,128854.9,-82.2109,71.2296
