Frequency,Impedance,Phase Angle,Temperature (Dry Bath)
10.0,4875611.0,-3.440291,71.5034
21.544346900318832,6255280.0,-11.82226,71.5035
46.41588833612777,6759905.0,-25.02732,71.5019
100.0,1055278.0,-82.07118,71.495
215.44346900318823,2782783.0,25.51079,71.4819
464.15888336127773,1278491.0,92.42233,71.484
1000.0,410575.3,66.25289,71.5098
2154.4346900318824,195482.9,-87.75608,71.4827
4641.588833612777,105541.9,-100.0028,71.4933
10000.0,60361.55,-90.42581,71.5007
