Frequency,Impedance,Phase Angle,Temperature (Dry Bath)
10.0,22483.89,-21.6613,65.6587
21.544346900318832,18916.07,-18.484,65.6715
46.41588833612777,16438.37,-15.32432,65.6749
100.0,14215.58,-13.21429,65.6588
215.44346900318823,70416.55,83.75639,65.6658
464.15888336127773,12644.61,-8.891632,65.6447
1000.0,11791.04,-8.047136,65.636
2154.4346900318824,11051.83,-7.658636,65.641
4641.588833612777,10860.39,-9.56043,65.6273
10000.0,10342.53,-13.43191,65.6448
