Frequency,Impedance,Phase Angle,Temperature (Dry Bath)
10.0,589140.8,-5.590707,71.3564
21.544346900318832,583109.9,-3.949544,71.3783
46.41588833612777,605722.6,-2.937041,71.3796
100.0,407001.6,1.770584,71.3716
215.44346900318823,465105.4,-2.472975,71.3703
464.15888336127773,622084.9,-15.3607,71.3664
1000.0,335540.1,-15.37827,71.3796
2154.4346900318824,267850.1,-61.76182,71.3826
4641.588833612777,162554.8,-62.79796,71.3787
10000.0,102561.6,-68.93065,71.3607
