Frequency,Impedance,Phase Angle,Temperature (Dry Bath)
10.0,12507.41,-23.50384,71.0496
21.544346900318832,10479.54,-19.87956,71.0305
46.41588833612777,9044.851,-16.8539,71.0218
100.0,8059.456,-13.81181,71.0428
215.44346900318823,7294.107,-11.3877,71.0541
464.15888336127773,6557.622,-11.00052,71.035
1000.0,6052.149,-10.03782,71.0515
2154.4346900318824,5628.048,-9.183365,71.051
4641.588833612777,5323.407,-8.909502,71.0501
10000.0,4979.042,-11.29156,71.0558
