Frequency,Impedance,Phase Angle,Temperature (Dry Bath)
10.0,4698711.0,-13.97852,71.1785
21.544346900318832,4662278.0,-3.54335,71.1951
46.41588833612777,5333148.0,-15.6426,71.1915
100.0,594456.0,-86.6337,71.1873
215.44346900318823,3029746.0,-91.00887,71.1782
464.15888336127773,558767.3,-70.51885,71.1857
1000.0,574709.0,-90.19431,71.1957
2154.4346900318824,320325.9,-58.3761,71.1846
4641.588833612777,131689.7,-85.47224,71.198
10000.0,65203.64,-77.8014,71.1947
