Frequency,Impedance,Phase Angle,Temperature (Dry Bath)
10.0,955416.2,-9.929807,71.3106
21.544346900318832,924685.1,-12.5606,71.295
46.41588833612777,771184.8,-18.24799,71.3062
100.0,1067121.0,-135.9218,71.302
215.44346900318823,13920.98,-111.3128,71.3104
464.15888336127773,429067.3,-7.669219,71.3072
1000.0,386928.7,54.62015,71.3006
2154.4346900318824,214035.3,-66.63933,71.3098
4641.588833612777,95832.17,-79.83518,71.3068
10000.0,66979.15,-83.57125,71.2991
