Frequency,Impedance,Phase Angle,Temperature (Dry Bath)
10.0,5664800.0,-0.7635921,71.053
21.544346900318832,2975561.0,-12.01175,71.0551
46.41588833612777,5226192.0,-8.207604,71.0692
100.0,481916.4,-8.543858,71.0594
215.44346900318823,755444.2,-56.00098,71.0549
464.15888336127773,1306187.0,-56.58832,71.0387
1000.0,258194.9,-152.8952,71.0588
2154.4346900318824,704675.4,-135.7022,71.0527
4641.588833612777,382046.4,-14.67614,71.0473
10000.0,178878.8,-80.13897,71.046
