Frequency,Impedance,Phase Angle,Temperature (Dry Bath)
10.0,3343117.0,-7.510785,70.7399
21.544346900318832,5877756.0,-12.61051,70.7428
46.41588833612777,5628777.0,-8.847839,70.7459
100.0,794427.9,-112.5764,70.7359
215.44346900318823,936180.7,-53.40345,70.752
464.15888336127773,1001416.0,-22.58749,70.7504
1000.0,718201.6,-28.63911,70.734
2154.4346900318824,316814.0,-125.6625,70.752
4641.588833612777,102989.3,-85.58652,70.7486
10000.0,69265.22,-90.8543,70.7532
