Frequency,Impedance,Phase Angle,Temperature (Dry Bath)
10.0,6176262.0,-3.107079,70.9046
21.544346900318832,5591626.0,-18.7336,70.9065
46.41588833612777,4140631.0,-20.17778,70.9008
100.0,906277.1,132.4118,70.8953
215.44346900318823,938808.7,-30.22455,70.8964
464.15888336127773,733070.1,-30.58567,70.8993
1000.0,356859.8,-14.67704,70.9033
2154.4346900318824,274765.0,-84.81614,70.8879
4641.588833612777,138272.3,-87.12096,70.8946
10000.0,59784.98,-82.43621,70.9117
