Frequency,Impedance,Phase Angle,Temperature (Dry Bath)
10.0,1161895.0,-11.37597,66.4013
21.544346900318832,1062476.0,-9.622321,66.3822
46.41588833612777,1038424.0,-14.34339,66.3848
100.0,1412801.0,-25.3854,66.3722
215.44346900318823,1241464.0,38.55226,66.3962
464.15888336127773,624887.7,-76.39991,66.3864
1000.0,339021.0,-66.79096,66.3819
2154.4346900318824,320636.8,-77.81126,66.3827
4641.588833612777,122223.9,-78.39578,66.3691
10000.0,61314.54,-85.52278,66.3747
