Frequency,Impedance,Phase Angle,Temperature (Dry Bath)
10.0,4226177.0,-17.02194,71.3458
21.544346900318832,6678517.0,-11.7857,71.3467
46.41588833612777,5867177.0,-43.29425,71.3451
100.0,346736.5,-9.79118,71.3568
215.44346900318823,1092551.0,-68.69587,71.338
464.15888336127773,523503.6,-119.9454,71.3388
1000.0,244905.7,-106.8193,71.3259
2154.4346900318824,235605.1,-92.259,71.351
4641.588833612777,186985.3,-66.5552,71.3353
10000.0,67848.54,-90.62251,71.3328
