Frequency,Impedance,Phase Angle,Temperature (Dry Bath)
10.0,175786.8,-11.96223,71.2288
21.544346900318832,161456.3,-12.15496,71.2201
46.41588833612777,149300.8,-10.74552,71.2297
100.0,114545.6,-21.59562,71.2271
215.44346900318823,124916.4,-0.8416108,71.2117
464.15888336127773,132151.4,-8.961946,71.2332
1000.0,90488.36,-20.49176,71.2256
2154.4346900318824,94695.46,-31.34844,71.2233
4641.588833612777,72533.03,-38.45187,71.2441
10000.0,52616.8,-58.19005,71.2219
