Frequency,Impedance,Phase Angle,Temperature (Dry Bath)
10.0,8752124.0,-16.05712,71.5626
21.544346900318832,4907342.0,-3.846209,71.5605
46.41588833612777,7462183.0,-20.73753,71.5574
100.0,667047.8,51.17092,71.5447
215.44346900318823,462467.9,25.247,71.545
464.15888336127773,284356.6,-75.71548,71.5593
1000.0,766612.0,-58.0822,71.5525
2154.4346900318824,630960.9,-73.20762,71.5333
4641.588833612777,221642.3,-96.9151,71.5626
10000.0,121147.3,-78.10942,71.5523
