Frequency,Impedance,Phase Angle,Temperature (Dry Bath)
10.0,4334192.0,-4.80067,70.9232
21.544346900318832,4084562.0,-19.14234,70.9232
46.41588833612777,5143570.0,-4.67228,70.9321
100.0,657346.2,-81.30774,70.9348
215.44346900318823,1270499.0,-60.03184,70.9289
464.15888336127773,572348.2,-88.5421,70.9173
1000.0,1045152.0,78.70722,70.9168
2154.4346900318824,362323.2,-78.79562,70.9294
4641.588833612777,144638.4,-77.05361,70.9231
10000.0,66794.73,-88.62959,70.9093
