Frequency,Impedance,Phase Angle,Temperature (Dry Bath)
10.0,4387328.0,-7.676082,71.3152
21.544346900318832,5140459.0,-13.7902,71.3011
46.41588833612777,3575895.0,-10.79666,71.2892
100.0,557160.5,-35.74686,71.2991
215.44346900318823,950339.0,8.595648,71.3037
464.15888336127773,1283664.0,-147.5587,71.3099
1000.0,5179898.0,-7.540751,71.3046
2154.4346900318824,414438.5,-114.7828,71.2947
4641.588833612777,227222.2,-73.8435,71.3112
10000.0,115907.7,-83.70333,71.31
