Frequency,Impedance,Phase Angle,Temperature (Dry Bath)
10.0,3789851.0,-3.833986,71.4706
21.544346900318832,9646067.0,-5.825278,71.4612
46.41588833612777,4185505.0,-28.6692,71.4707
100.0,385539.4,-97.89875,71.4768
215.44346900318823,755801.5,-27.76777,71.4723
464.15888336127773,433296.1,-81.2192,71.4672
1000.0,308816.2,-65.49797,71.4698
2154.4346900318824,191034.7,-68.65439,71.4685
4641.588833612777,127954.7,-83.99464,71.4752
10000.0,51444.98,-83.21557,71.4735
