Frequency,Impedance,Phase Angle,Temperature (Dry Bath)
10.0,6971883.0,-0.8123572,71.0718
21.544346900318832,3574974.0,19.28217,71.0736
46.41588833612777,5333477.0,-26.98523,71.0532
100.0,433570.0,43.00864,71.0733
215.44346900318823,561054.4,-177.3308,71.0678
464.15888336127773,530113.7,-32.64046,71.0805
1000.0,587788.2,-85.06605,71.0691
2154.4346900318824,544920.0,-86.67172,71.0654
4641.588833612777,208464.4,-67.7747,71.0788
10000.0,150376.7,-69.79605,71.0728
