Frequency,Impedance,Phase Angle,Temperature (Dry Bath)
10.0,56695.31,-18.3368,70.6785
21.544346900318832,49650.87,-16.27045,70.6835
46.41588833612777,43740.5,-15.58191,70.6951
100.0,36936.74,-13.71084,70.7026
215.44346900318823,35964.26,-17.64369,70.6855
464.15888336127773,32081.67,-17.84268,70.6916
1000.0,32517.89,-16.74127,70.6857
2154.4346900318824,24935.63,-16.57415,70.7034
4641.588833612777,21805.01,-20.00557,70.6781
10000.0,20224.37,-24.49501,70.6857
