Frequency,Impedance,Phase Angle,Temperature (Dry Bath)
10.0,764739.8,-19.65721,70.9839
21.544346900318832,664808.5,-23.57478,70.9959
46.41588833612777,594387.2,-23.67387,70.9973
100.0,609196.4,-1.801443,70.9783
215.44346900318823,329418.7,-13.35026,70.9785
464.15888336127773,299323.5,-39.2949,70.9822
1000.0,176905.5,-50.07302,70.982
2154.4346900318824,173505.7,-47.74199,70.993
4641.588833612777,93484.08,-69.66981,70.974
10000.0,47032.2,-74.64813,70.9814
