Frequency,Impedance,Phase Angle,Temperature (Dry Bath)
10.0,4867126.0,-21.64377,71.749
21.544346900318832,3662926.0,-20.45242,71.7461
46.41588833612777,5534557.0,-12.06735,71.7458
100.0,546624.3,96.72229,71.7514
215.44346900318823,425196.5,-62.4611,71.7477
464.15888336127773,313471.2,-169.2532,71.7615
1000.0,325966.6,-17.89116,71.7475
2154.4346900318824,354349.4,94.75299,71.7416
4641.588833612777,197037.1,-114.7719,71.7381
10000.0,113007.6,-71.79025,71.7383
