Frequency,Impedance,Phase Angle,Temperature (Dry Bath)
10.0,180293.9,-11.91588,71.2981
21.544346900318832,160419.3,-11.71878,71.2933
46.41588833612777,145873.1,-11.26825,71.2999
100.0,126069.6,-10.37473,71.3131
215.44346900318823,65741.71,145.9661,71.2993
464.15888336127773,136782.5,-17.35806,71.2975
1000.0,81650.99,-30.54465,71.3063
2154.4346900318824,89433.04,-26.27652,71.2907
4641.588833612777,70662.23,-25.60137,71.2903
10000.0,50193.47,-65.55164,71.2875
