Frequency,Impedance,Phase Angle,Temperature (Dry Bath)
10.0,3177328.0,-6.747364,70.9186
21.544346900318832,5200189.0,8.959051,70.9175
46.41588833612777,3346106.0,-51.24238,70.9175
100.0,1913406.0,21.86025,70.9168
215.44346900318823,700634.2,17.52581,70.9204
464.15888336127773,451803.8,-82.57222,70.9007
1000.0,251838.4,-79.72526,70.919
2154.4346900318824,175608.2,-79.96871,70.9195
4641.588833612777,107747.8,-85.94525,70.9154
10000.0,45770.6,-81.56538,70.9067
