Frequency,Impedance,Phase Angle,Temperature (Dry Bath)
10.0,148971.4,-11.06948,71.3564
21.544346900318832,139130.7,-8.631891,71.3537
46.41588833612777,130867.8,-9.481667,71.3451
100.0,122003.6,-7.189414,71.3565
215.44346900318823,140442.8,-5.670943,71.3485
464.15888336127773,110325.3,-12.02072,71.3516
1000.0,97593.07,-25.54559,71.3417
2154.4346900318824,75555.49,-24.80672,71.3431
4641.588833612777,72629.49,-36.49355,71.35
10000.0,43651.27,-60.13645,71.3618
