Frequency,Impedance,Phase Angle,Temperature (Dry Bath)
10.0,2466932.0,-7.216652,71.2793
21.544346900318832,1934528.0,2.12887,71.2897
46.41588833612777,2455158.0,-15.9144,71.2792
100.0,620211.5,-113.7731,71.2855
215.44346900318823,711658.5,-37.5928,71.2883
464.15888336127773,379188.2,-51.56699,71.2778
1000.0,364900.5,-159.3389,71.2767
2154.4346900318824,272132.1,-86.05292,71.2871
4641.588833612777,305860.7,-80.6524,71.2778
10000.0,124745.6,-112.9359,71.2845
