Frequency,Impedance,Phase Angle,Temperature (Dry Bath)
10.0,82193.96,-36.40456,71.4248
21.544346900318832,61425.95,-32.54918,71.4289
46.41588833612777,47092.88,-28.46861,71.4036
100.0,35332.02,-23.23935,71.43
215.44346900318823,30719.3,-25.60814,71.4155
464.15888336127773,26931.15,-17.76486,71.4254
1000.0,24473.51,-10.80732,71.4537
2154.4346900318824,21712.95,-16.18435,71.4152
4641.588833612777,19023.06,-17.93697,71.4416
10000.0,17927.04,-24.52985,71.4356
