Frequency,Impedance,Phase Angle,Temperature (Dry Bath)
10.0,10988.58,-25.69335,71.4351
21.544346900318832,8961.615,-22.76027,71.4382
46.41588833612777,7496.866,-19.95013,71.4457
100.0,6422.47,-17.40604,71.4388
215.44346900318823,5607.965,-14.65512,71.4589
464.15888336127773,4985.271,-12.46699,71.4333
1000.0,4543.293,-10.16772,71.4545
2154.4346900318824,4168.573,-10.25119,71.4403
4641.588833612777,3885.458,-9.364646,71.4387
10000.0,3673.922,-10.25944,71.4609
