Frequency,Impedance,Phase Angle,Temperature (Dry Bath)
10.0,4881765.0,-17.23508,71.2562
21.544346900318832,21735050.0,25.59509,71.2621
46.41588833612777,6041587.0,-1.474131,71.2669
100.0,784530.7,-66.40819,71.2632
215.44346900318823,347060.2,-107.7034,71.2709
464.15888336127773,482990.1,-106.33,71.2676
1000.0,189121.8,-70.16904,71.2636
2154.4346900318824,551863.3,-87.2382,71.2583
4641.588833612777,744559.2,18.36635,71.2578
10000.0,229028.1,-77.59051,71.2534
