Frequency,Impedance,Phase Angle,Temperature (Dry Bath)
10.0,4012408.0,-24.07559,29.5159
21.544346900318832,4400372.0,3.887727,29.254
46.41588833612777,4862342.0,-36.06477,29.3713
100.0,925576.6,142.4369,29.6467
215.44346900318823,2795298.0,-120.0313,29.569
464.15888336127773,10490490.0,-87.64265,29.694
1000.0,732278.4,169.7863,29.565
2154.4346900318824,1834451.0,-65.25453,29.6508
4641.588833612777,241493.4,-82.12622,29.478
10000.0,134537.1,-87.67845,29.6691
