Frequency,Impedance,Phase Angle,Temperature (Dry Bath)
10.0,155822.3,-9.856061,71.3229
21.544346900318832,148568.4,-8.005652,71.3073
46.41588833612777,138587.2,-8.149856,71.3252
100.0,142119.2,-25.28298,71.3363
215.44346900318823,23147.41,17.14767,71.3197
464.15888336127773,104522.8,-13.63799,71.3061
1000.0,104849.5,-23.37237,71.3168
2154.4346900318824,99535.23,-28.26032,71.3396
4641.588833612777,67605.01,-42.72689,71.3225
10000.0,40647.38,-63.36235,71.339
