Frequency,Impedance,Phase Angle,Temperature (Dry Bath)
10.0,7989051.0,8.968548,71.2921
21.544346900318832,5458394.0,-8.326947,71.3044
46.41588833612777,3923119.0,-9.007244,71.2986
100.0,579950.7,-13.59469,71.3005
215.44346900318823,841862.8,-45.22842,71.2921
464.15888336127773,1196011.0,-32.73552,71.3011
1000.0,3001389.0,-30.51512,71.3054
2154.4346900318824,677967.3,-40.08415,71.2911
4641.588833612777,398459.1,-85.43805,71.3093
10000.0,233051.3,-94.62037,71.3065
