Frequency,Impedance,Phase Angle,Temperature (Dry Bath)
10.0,2220172.0,-22.62315,71.3904
21.544346900318832,1799020.0,-15.55087,71.3986
46.41588833612777,2299269.0,-19.22186,71.4015
100.0,570245.9,-88.22521,71.3856
215.44346900318823,30088.61,57.71008,71.393
464.15888336127773,380012.5,-54.20475,71.4061
1000.0,901909.6,-19.01511,71.401
2154.4346900318824,244612.6,-67.87509,71.4101
4641.588833612777,149459.7,-74.28769,71.3983
10000.0,56885.31,-89.58363,71.3969
