Frequency,Impedance,Phase Angle,Temperature (Dry Bath)
10.0,13724.03,-28.15494,71.0893
21.544346900318832,10920.54,-25.72151,71.0948
46.41588833612777,8876.838,-22.88598,71.0785
100.0,7443.863,-19.92316,71.0852
215.44346900318823,6302.394,-17.77161,71.0791
464.15888336127773,5606.731,-14.36604,71.0789
1000.0,4878.655,-14.08356,71.0934
2154.4346900318824,4436.651,-13.02718,71.0812
4641.588833612777,4029.944,-12.17231,71.0898
10000.0,3691.083,-13.29541,71.0827
