Frequency,Impedance,Phase Angle,Temperature (Dry Bath)
10.0,4364926.0,2.066081,71.3307
21.544346900318832,6579198.0,1.0337,71.3476
46.41588833612777,4679529.0,17.11458,71.3368
100.0,3594084.0,-93.43128,71.3353
215.44346900318823,1653873.0,-24.00663,71.3295
464.15888336127773,404515.7,-115.1025,71.3264
1000.0,148926.0,-88.37737,71.3296
2154.4346900318824,1194761.0,-67.17896,71.3182
4641.588833612777,310892.9,-38.08287,71.3238
10000.0,120258.6,-75.08371,71.327
