Frequency,Impedance,Phase Angle,Temperature (Dry Bath)
10.0,160157.6,-9.865765,71.2479
21.544346900318832,147666.7,-9.155124,71.2682
46.41588833612777,138079.3,-8.601097,71.2556
100.0,146668.8,19.6034,71.2302
215.44346900318823,129116.3,-21.4189,71.2493
464.15888336127773,78511.98,-23.85715,71.2632
1000.0,94876.79,-22.732,71.2719
2154.4346900318824,90093.55,-28.4254,71.2753
4641.588833612777,73179.43,-46.83068,71.2775
10000.0,39589.06,-59.47624,71.2758
