Frequency,Impedance,Phase Angle,Temperature (Dry Bath)
10.0,4045244.0,11.74032,71.4362
21.544346900318832,10398470.0,-0.2497718,71.4481
46.41588833612777,6965233.0,6.147007,71.4096
100.0,732930.5,-109.7952,71.427
215.44346900318823,3992956.0,-34.83077,71.4262
464.15888336127773,313165.0,-99.51478,71.4288
1000.0,1169738.0,-1.017619,71.4332
2154.4346900318824,351473.6,-49.28615,71.4206
4641.588833612777,1319634.0,20.17597,71.4488
10000.0,118870.0,-92.90772,71.4323
