Frequency,Impedance,Phase Angle,Temperature (Dry Bath)
10.0,4596031.0,13.97869,71.5601
21.544346900318832,6782741.0,-18.65285,71.5453
46.41588833612777,4422291.0,-14.72541,71.5524
100.0,2133820.0,40.12533,71.5542
215.44346900318823,696364.9,-81.03938,71.5398
464.15888336127773,743981.2,-171.8081,71.5539
1000.0,914034.1,-128.314,71.5462
2154.4346900318824,353272.7,-34.38665,71.5543
4641.588833612777,227970.9,-86.84262,71.5395
10000.0,100696.3,-87.4835,71.5574
