Frequency,Impedance,Phase Angle,Temperature (Dry Bath)
10.0,8877449.0,42.48305,71.3065
21.544346900318832,5116775.0,-10.53835,71.3171
46.41588833612777,2999851.0,-64.7043,71.2999
100.0,576757.4,-173.8529,71.3006
215.44346900318823,111288.7,65.87487,71.3126
464.15888336127773,535127.6,-16.87152,71.3158
1000.0,575549.9,-80.43938,71.2923
2154.4346900318824,211754.6,-79.93092,71.2963
4641.588833612777,153674.2,-85.91852,71.2986
10000.0,60395.84,-82.71135,71.2987
