Frequency,Impedance,Phase Angle,Temperature (Dry Bath)
10.0,4881154.0,-27.62546,70.7553
21.544346900318832,3804491.0,-6.349208,70.7582
46.41588833612777,3223961.0,-29.07957,70.7567
100.0,402986.7,-60.81677,70.7481
215.44346900318823,813748.9,145.8683,70.7579
464.15888336127773,413899.8,5.277999,70.7387
1000.0,170004.8,-99.33278,70.7534
2154.4346900318824,211181.8,-94.20721,70.7494
4641.588833612777,81055.25,-81.50277,70.7405
10000.0,41084.64,-74.81735,70.759
