Frequency,Impedance,Phase Angle,Temperature (Dry Bath)
10.0,16636.12,-23.39963,71.2955
21.544346900318832,13775.03,-21.82029,71.3139
46.41588833612777,11541.78,-20.17229,71.2973
100.0,10152.93,-17.87826,71.275
215.44346900318823,8535.343,-16.32121,71.2854
464.15888336127773,7546.191,-14.13301,71.2698
1000.0,6742.583,-12.39115,71.2924
2154.4346900318824,6217.992,-9.686905,71.2722
4641.588833612777,5790.814,-9.584821,71.2768
10000.0,5448.33,-9.86151,71.257
