Frequency,Impedance,Phase Angle,Temperature (Dry Bath)
10.0,6557563.0,-34.74845,29.0386
21.544346900318832,7482162.0,-3.956826,28.9556
46.41588833612777,4249052.0,-7.26857,29.0181
100.0,908860.3,84.76019,28.9587
215.44346900318823,4777956.0,-126.4698,28.339
464.15888336127773,932298.5,-63.71933,28.6858
1000.0,277624.7,-103.5452,28.5778
2154.4346900318824,675885.4,-77.21436,28.6754
4641.588833612777,317086.7,-87.02621,28.7682
10000.0,168211.8,-89.76588,28.6432
