Frequency,Impedance,Phase Angle,Temperature (Dry Bath)
10.0,12108990.0,-6.777567,71.1011
21.544346900318832,6277966.0,-12.95615,71.0948
46.41588833612777,5225356.0,-58.38834,71.103
100.0,409607.0,-143.0487,71.1027
215.44346900318823,546883.6,-32.62885,71.0952
464.15888336127773,550156.0,-87.01546,71.0942
1000.0,611596.3,-67.4624,71.0962
2154.4346900318824,301485.8,-95.56055,71.1085
4641.588833612777,134250.5,-96.01826,71.1122
10000.0,61187.68,-85.31239,71.1096
