Frequency,Impedance,Phase Angle,Temperature (Dry Bath)
10.0,3956765.0,2.889269,71.5005
21.544346900318832,7718492.0,-5.932776,71.4983
46.41588833612777,7217317.0,-14.06548,71.5041
100.0,635268.9,-38.70905,71.4987
215.44346900318823,1240024.0,-78.42429,71.4986
464.15888336127773,1343486.0,-113.0569,71.5051
1000.0,942642.3,-96.88835,71.4895
2154.4346900318824,505372.0,-53.3614,71.4837
4641.588833612777,230500.5,-75.31025,71.4738
10000.0,104141.2,-84.20178,71.4904
