Frequency,Impedance,Phase Angle,Temperature (Dry Bath)
10.0,3816473.0,8.885778,71.1948
21.544346900318832,4262978.0,0.1412858,71.1853
46.41588833612777,5699730.0,-20.37122,71.1972
100.0,471593.5,-131.4508,71.2032
215.44346900318823,997904.5,84.61253,71.1765
464.15888336127773,292866.2,-88.62142,71.2032
1000.0,1084046.0,-94.70288,71.1902
2154.4346900318824,788995.9,118.9528,71.1929
4641.588833612777,208389.8,-110.042,71.192
10000.0,256634.4,-92.10205,71.1761
