Frequency,Impedance,Phase Angle,Temperature (Dry Bath)
10.0,4160664.0,-6.091865,71.0306
21.544346900318832,6046577.0,-18.4787,71.0149
46.41588833612777,6087291.0,-13.97826,71.0323
100.0,257125.8,178.5869,71.0261
215.44346900318823,718447.7,-81.91855,71.0144
464.15888336127773,563880.2,-138.3667,71.0277
1000.0,536412.9,-95.73115,71.0245
2154.4346900318824,251363.0,-77.99092,71.0168
4641.588833612777,115505.6,-99.1469,71.0286
10000.0,72914.75,-90.2522,71.0161
