Frequency,Impedance,Phase Angle,Temperature (Dry Bath)
10.0,797292.2,-29.51965,71.2416
21.544346900318832,662440.6,-27.96444,71.2272
46.41588833612777,516985.8,-24.90093,71.2226
100.0,151298.6,-39.37326,71.2375
215.44346900318823,208843.4,-1.631033,71.225
464.15888336127773,239766.8,-25.43797,71.2204
1000.0,211040.0,-6.782984,71.2209
2154.4346900318824,203032.9,-54.88064,71.22
4641.588833612777,91607.59,-66.73349,71.2181
10000.0,52086.68,-70.26108,71.2267
