Frequency,Impedance,Phase Angle,Temperature (Dry Bath)
10.0,117597.5,-16.99557,71.1112
21.544346900318832,102792.5,-16.24602,71.1146
46.41588833612777,90979.64,-15.41829,71.1179
100.0,79936.02,-13.76366,71.1322
215.44346900318823,68842.51,-15.03068,71.1072
464.15888336127773,66021.33,-14.17997,71.1222
1000.0,57605.66,-9.935972,71.1243
2154.4346900318824,51486.41,-15.28935,71.1153
4641.588833612777,48928.46,-16.71738,71.1171
10000.0,39267.02,-27.09188,71.1301
