Frequency,Impedance,Phase Angle,Temperature (Dry Bath)
10.0,155733.8,-10.25102,71.3721
21.544346900318832,146791.1,-8.914547,71.3792
46.41588833612777,137290.2,-6.91151,71.3757
100.0,224009.6,-15.38524,71.3689
215.44346900318823,22571.54,59.60964,71.3761
464.15888336127773,137362.7,-12.29615,71.3663
1000.0,91823.25,-13.10231,71.3706
2154.4346900318824,93363.72,-35.7117,71.3606
4641.588833612777,66923.99,-45.98972,71.3736
10000.0,41557.12,-53.84272,71.374
