Frequency,Impedance,Phase Angle,Temperature (Dry Bath)
10.0,4894360.0,-12.28471,71.4084
21.544346900318832,5291694.0,-17.75142,71.397
46.41588833612777,4414736.0,-35.44061,71.3977
100.0,191939.3,9.022738,71.3803
215.44346900318823,612435.8,-26.0035,71.4096
464.15888336127773,536616.8,-80.5497,71.3905
1000.0,413137.6,-135.9499,71.4019
2154.4346900318824,301583.9,-70.86373,71.3896
4641.588833612777,123327.6,-91.6025,71.397
10000.0,64036.86,-81.72822,71.3961
