Frequency,Impedance,Phase Angle,Temperature (Dry Bath)
10.0,2512027.0,-9.408571,71.4599
21.544346900318832,6567975.0,-1.481113,71.4638
46.41588833612777,5161068.0,-3.177186,71.4631
100.0,978800.0,-0.3963235,71.4958
215.44346900318823,1727797.0,-102.2489,71.4828
464.15888336127773,920521.5,-4.715462,71.4827
1000.0,3030297.0,-54.22355,71.4818
2154.4346900318824,551934.5,-99.34602,71.477
4641.588833612777,312191.7,-61.90713,71.4609
10000.0,197562.8,-82.51165,71.4724
