Frequency,Impedance,Phase Angle,Temperature (Dry Bath)
10.0,21556.4,-17.85277,71.5126
21.544346900318832,18550.14,-16.92335,71.501
46.41588833612777,16156.75,-16.16496,71.5073
100.0,14158.59,-16.31805,71.504
215.44346900318823,12559.67,-13.60731,71.4926
464.15888336127773,11405.96,-13.6327,71.4939
1000.0,10201.25,-11.42881,71.5029
2154.4346900318824,9496.215,-10.17895,71.5037
4641.588833612777,8911.765,-11.34347,71.5102
10000.0,8192.758,-12.56927,71.5004
