Frequency,Impedance,Phase Angle,Temperature (Dry Bath)
10.0,6197036.0,27.25262,71.4913
21.544346900318832,8499171.0,12.15769,71.5025
46.41588833612777,5082697.0,-22.09912,71.4768
100.0,486756.1,-14.33643,71.4766
215.44346900318823,5464730.0,-123.9612,71.496
464.15888336127773,6855723.0,52.08795,71.4754
1000.0,800533.4,-91.76109,71.4893
2154.4346900318824,409873.0,-73.15506,71.4892
4641.588833612777,276857.4,-83.63802,71.4888
10000.0,147539.0,-76.15244,71.4828
