Frequency,Impedance,Phase Angle,Temperature (Dry Bath)
10.0,8366405.0,-27.90274,71.3065
21.544346900318832,3944885.0,2.551198,71.3093
46.41588833612777,16752090.0,-60.87872,71.3101
100.0,1140948.0,-50.88671,71.3088
215.44346900318823,143165.2,124.3109,71.314
464.15888336127773,645649.4,-121.3738,71.3115
1000.0,396027.4,-99.33183,71.3023
2154.4346900318824,413094.1,-108.0097,71.309
4641.588833612777,155158.2,-91.46314,71.3072
10000.0,66278.61,-85.64244,71.3077
