Frequency,Impedance,Phase Angle,Temperature (Dry Bath)
10.0,216375.8,-25.45086,71.308
21.544346900318832,177471.9,-24.38086,71.3092
46.41588833612777,140939.2,-24.47711,71.2993
100.0,107691.0,-23.4965,71.2948
215.44346900318823,164651.5,122.744,71.317
464.15888336127773,91784.2,-3.489147,71.3122
1000.0,69801.87,-30.06589,71.3145
2154.4346900318824,70020.59,-27.41462,71.3007
4641.588833612777,56239.15,-36.63535,71.3116
10000.0,34363.89,-54.55957,71.2891
