Frequency,Impedance,Phase Angle,Temperature (Dry Bath)
10.0,122540.8,-2.199113,71.6746
21.544346900318832,106280.8,-2.14199,71.6796
46.41588833612777,106603.8,-1.84486,71.6847
100.0,108195.4,5.854708,71.6732
215.44346900318823,99553.49,-1.178462,71.6669
464.15888336127773,98663.67,-3.134671,71.6772
1000.0,89701.75,-5.902196,71.6769
2154.4346900318824,113454.9,-20.111,71.6828
4641.588833612777,95444.46,-22.09227,71.677
10000.0,78867.02,-43.78347,71.6639
