Frequency,Impedance,Phase Angle,Temperature (Dry Bath)
10.0,3850835.0,-9.98076,71.0327
21.544346900318832,2801207.0,-19.34881,71.0271
46.41588833612777,2393472.0,-31.08798,71.0295
100.0,357961.2,-106.6724,71.0225
215.44346900318823,624513.6,64.84259,71.0232
464.15888336127773,5457725.0,19.77447,71.0129
1000.0,335789.4,-52.55733,71.0245
2154.4346900318824,195986.7,-88.66867,71.0303
4641.588833612777,125439.0,-69.4992,71.0292
10000.0,63071.85,-79.73445,71.0253
