Frequency,Impedance,Phase Angle,Temperature (Dry Bath)
10.0,3739006.0,-25.62625,71.3226
21.544346900318832,5014998.0,13.79806,71.3066
46.41588833612777,5380515.0,-21.37171,71.3225
100.0,491778.4,19.36709,71.3215
215.44346900318823,647296.3,22.14049,71.3309
464.15888336127773,736557.4,-74.65746,71.3283
1000.0,581897.2,-77.6178,71.3222
2154.4346900318824,281169.0,-104.858,71.3213
4641.588833612777,337223.3,-58.52983,71.3393
10000.0,151579.9,-77.01682,71.3078
