Frequency,Impedance,Phase Angle,Temperature (Dry Bath)
10.0,13819.82,-19.86273,70.9046
21.544346900318832,11897.6,-17.11475,70.9089
46.41588833612777,10449.16,-15.04169,70.8893
100.0,9334.258,-13.55205,70.9124
215.44346900318823,8553.133,-11.58849,70.8958
464.15888336127773,7776.125,-10.82135,70.9063
1000.0,7097.709,-9.025268,70.9139
2154.4346900318824,6560.648,-9.548296,70.9165
4641.588833612777,6176.69,-10.55803,70.9136
10000.0,5719.676,-12.43086,70.9182
