Frequency,Impedance,Phase Angle,Temperature (Dry Bath)
10.0,4074586.0,-34.62868,71.3256
21.544346900318832,6471878.0,11.22496,71.3156
46.41588833612777,3689034.0,-28.09876,71.3299
100.0,385716.4,40.16664,71.3202
215.44346900318823,2827756.0,-30.13503,71.3178
464.15888336127773,525560.2,-53.00818,71.3157
1000.0,697691.6,-62.74123,71.3206
2154.4346900318824,230876.6,-90.38034,71.3326
4641.588833612777,120399.0,-78.25736,71.337
10000.0,56771.98,-84.00537,71.3249
