Frequency,Impedance,Phase Angle,Temperature (Dry Bath)
10.0,60111.23,-21.79456,71.0296
21.544346900318832,50677.48,-21.99623,71.028
46.41588833612777,42464.66,-22.52314,71.0242
100.0,37592.58,-22.62567,71.0294
215.44346900318823,29412.97,-25.05508,71.017
464.15888336127773,23055.59,-24.66328,71.0065
1000.0,18097.23,-26.6614,71.0355
2154.4346900318824,14388.2,-25.18961,71.0205
4641.588833612777,11923.59,-24.83911,71.01
10000.0,9225.64,-22.26967,71.0326
