Frequency,Impedance,Phase Angle,Temperature (Dry Bath)
10.0,5323891.0,-23.64065,70.9108
21.544346900318832,4119470.0,-11.52247,70.9296
46.41588833612777,5285906.0,-50.27899,70.9328
100.0,1070071.0,119.2901,70.9382
215.44346900318823,876493.7,-63.28234,70.9271
464.15888336127773,403961.1,-44.66238,70.9212
1000.0,372534.9,-51.63426,70.927
2154.4346900318824,179594.1,-82.81134,70.9456
4641.588833612777,102653.9,-78.95633,70.9317
10000.0,47700.08,-79.98232,70.9134
