Frequency,Impedance,Phase Angle,Temperature (Dry Bath)
10.0,214423.9,-23.05472,67.2986
21.5,180245.7,-20.15236,67.3308
46.4,156898.7,-17.63763,67.3072
100.0,137561.2,-15.3869,67.2959
215.4,105956.2,-48.01685,67.3053
464.2,113357.8,-14.84542,67.3073
1000.0,105131.7,-15.3967,67.3006
2154.4,92729.28,-20.32799,67.3117
4641.6,79324.69,-28.26444,67.3002
10000.0,60966.03,-40.29678,67.3
