Frequency,Impedance,Phase Angle,Temperature (Dry Bath)
10.0,6364705.0,3.84275,65.8647
21.544346900318832,14728380.0,35.88717,65.8631
46.41588833612777,5488045.0,-46.44796,65.8621
100.0,808899.5,-7.299515,65.8593
215.44346900318823,4194.495,83.80085,65.8518
464.15888336127773,1311024.0,-121.6628,65.854
1000.0,1075099.0,-161.8751,65.86
2154.4346900318824,223753.8,-100.7114,65.8599
4641.588833612777,131541.4,-92.9804,65.8592
10000.0,69900.2,-79.72131,65.862
