Frequency,Impedance,Phase Angle,Temperature (Dry Bath)
10.0,21090470.0,-7.382328,68.2501
21.5,22607140.0,-36.01465,68.2799
46.4,14977180.0,-64.68929,68.2731
100.0,8017230.0,-80.36443,68.2762
215.4,3358128.0,-83.15194,68.25
464.2,2524170.0,-70.37863,68.2854
1000.0,1363601.0,-88.55395,68.2725
2154.4,594792.8,-83.36781,68.2735
4641.6,273320.6,-89.11849,68.2754
10000.0,135541.5,-93.49577,68.2842
