Frequency,Impedance,Phase Angle,Temperature (Dry Bath)
10.0,23983120.0,-11.75673,67.1267
21.5,24456480.0,-33.33171,67.1105
46.4,18571820.0,-47.90936,67.1144
100.0,6327614.0,-55.2027,67.1127
215.4,227544.4,168.6834,67.1043
464.2,1731898.0,-84.77131,67.1263
1000.0,1126000.0,-78.26084,67.1203
2154.4,560212.8,-82.99273,67.1198
4641.6,261660.9,-88.28511,67.1138
10000.0,127519.6,-87.12854,67.1223
