Frequency,Impedance,Phase Angle,Temperature (Dry Bath)
10.0,4615541.0,-28.88592,71.2518
21.544346900318832,5020745.0,-22.11067,71.2414
46.41588833612777,5352711.0,-13.91105,71.2576
100.0,508105.8,-93.03717,71.2477
215.44346900318823,449879.9,-130.7383,71.2592
464.15888336127773,522633.8,-115.8283,71.2495
1000.0,2408114.0,32.77994,71.2565
2154.4346900318824,346401.0,-72.32674,71.2589
4641.588833612777,155507.3,-77.82331,71.2543
10000.0,61899.13,-86.42569,71.2576
