Frequency,Impedance,Phase Angle,Temperature (Dry Bath)
10.0,10829700.0,-18.23731,71.2158
21.544346900318832,6306676.0,-2.496876,71.2202
46.41588833612777,4053765.0,-28.37503,71.2143
100.0,360535.5,-84.6521,71.2329
215.44346900318823,1170138.0,-107.9709,71.2233
464.15888336127773,969417.1,-113.6565,71.2182
1000.0,478523.3,-120.2605,71.2134
2154.4346900318824,241126.7,-69.60351,71.2324
4641.588833612777,184826.7,-96.33424,71.2116
10000.0,55566.67,-89.10451,71.2207
