Frequency,Impedance,Phase Angle,Temperature (Dry Bath)
10.0,35766620.0,-10.41522,67.2791
21.5,23654220.0,-40.09372,67.2852
46.4,16710550.0,-50.39075,67.2889
100.0,3147451.0,73.00603,67.2837
215.4,4563849.0,52.95378,67.3027
464.2,2408438.0,-71.71356,67.2861
1000.0,910515.9,-88.64562,67.2983
2154.4,571205.2,-86.48391,67.2881
4641.6,279805.0,-84.07795,67.2899
10000.0,131054.2,-86.614,67.3029
