Frequency,Impedance,Phase Angle,Temperature (Dry Bath)
10.0,8607693.0,0.3819984,27.95
21.544346900318832,4862867.0,6.671435,28.2781
46.41588833612777,5572703.0,-16.83404,28.3364
100.0,1748310.0,5.54634,27.9991
215.44346900318823,1135943.0,-166.9553,28.3634
464.15888336127773,2925117.0,-24.42455,28.347
1000.0,2017775.0,2.941876,28.3451
2154.4346900318824,544215.6,-73.60225,28.1176
4641.588833612777,227675.6,-85.45015,28.0299
10000.0,140579.8,-83.18226,28.5079
