Frequency,Impedance,Phase Angle,Temperature (Dry Bath)
10.0,5512296.0,-53.58877,71.2793
21.544346900318832,4434313.0,-14.27259,71.2609
46.41588833612777,4194895.0,2.893194,71.2805
100.0,262909.6,-77.10648,71.2762
215.44346900318823,20287.39,177.0386,71.2877
464.15888336127773,605931.9,20.95116,71.2824
1000.0,792765.4,-32.15516,71.2754
2154.4346900318824,246688.7,-96.55556,71.2926
4641.588833612777,117925.3,-90.46789,71.2755
10000.0,67694.12,-89.51141,71.2836
