Frequency,Impedance,Phase Angle,Temperature (Dry Bath)
10.0,150871.5,-4.908102,68.0315
21.5,146271.8,-4.270967,68.005
46.4,143448.9,-3.760835,67.9947
100.0,141379.6,-3.727502,68.0075
215.4,136418.2,-5.539415,68.0078
464.2,131061.5,-5.927205,68.0058
1000.0,126305.0,-10.6289,68.0172
2154.4,125429.2,-16.10441,68.0005
4641.6,108559.3,-30.94872,68.0174
10000.0,85569.04,-50.35451,68.0099
