Frequency,Impedance,Phase Angle,Temperature (Dry Bath)
10.0,5373793.0,3.222755,70.9894
21.544346900318832,5361314.0,-20.98076,70.9834
46.41588833612777,4306655.0,-15.17485,71.0035
100.0,702074.3,97.60272,70.9904
215.44346900318823,1893184.0,-89.72018,70.9821
464.15888336127773,2301739.0,-11.09209,70.9995
1000.0,288479.7,-65.41197,71.0101
2154.4346900318824,194111.1,-80.13503,71.0263
4641.588833612777,109124.8,-88.25747,71.017
10000.0,58472.22,-83.54598,71.0181
