Frequency,Impedance,Phase Angle,Temperature (Dry Bath)
10.0,7278744.0,-30.90609,66.4033
21.544346900318832,7513811.0,18.84915,66.3893
46.41588833612777,6528341.0,-27.51341,66.3924
100.0,1181272.0,-138.8623,66.3988
215.44346900318823,328071.7,7.48964,66.3963
464.15888336127773,514122.2,-90.15722,66.3992
1000.0,323603.8,-100.94,66.396
2154.4346900318824,279805.5,-61.60592,66.407
4641.588833612777,131296.4,-78.68323,66.3926
10000.0,61710.65,-81.87687,66.4005
