Frequency,Impedance,Phase Angle,Temperature (Dry Bath)
10.0,35823800.0,-15.87401,68.0384
21.5,57481660.0,-14.22926,68.0271
46.4,27183630.0,-47.9759,68.0421
100.0,6764668.0,-50.51813,68.0323
215.4,7796013.0,-80.94667,68.0298
464.2,2547727.0,-93.75488,68.032
1000.0,1286316.0,-81.52705,68.03
2154.4,556094.3,-87.77984,68.036
4641.6,312149.3,-83.95894,68.0373
10000.0,136829.9,-97.44677,68.0509
