Frequency,Impedance,Phase Angle,Temperature (Dry Bath)
10.0,209622.3,-23.39091,67.3819
21.5,176788.3,-20.37728,67.3688
46.4,152947.6,-17.76205,67.3719
100.0,132330.5,-14.98069,67.3658
215.4,124321.2,-14.08301,67.3797
464.2,111570.6,-13.3852,67.3632
1000.0,102545.8,-15.78532,67.3667
2154.4,90290.85,-20.29424,67.3724
4641.6,77696.04,-27.72974,67.3686
10000.0,58523.37,-39.56617,67.3757
