Frequency,Impedance,Phase Angle,Temperature (Dry Bath)
10.0,245460.1,-23.10932,67.2971
21.5,205854.6,-20.7181,67.3029
46.4,177459.3,-18.44904,67.2952
100.0,153627.0,-16.54739,67.3139
215.4,90055.53,9.780592,67.2908
464.2,127786.0,-15.11389,67.2989
1000.0,113537.3,-16.34667,67.2859
2154.4,100471.9,-23.35982,67.2865
4641.6,81597.01,-30.31156,67.2845
10000.0,61706.84,-41.90118,67.2818
