Frequency,Impedance,Phase Angle,Temperature (Dry Bath)
10.0,5868679.0,-11.45771,71.3357
21.544346900318832,6796247.0,20.73409,71.3224
46.41588833612777,5870176.0,-8.837391,71.3249
100.0,750460.0,54.33325,71.317
215.44346900318823,745505.2,-56.59744,71.3275
464.15888336127773,1777216.0,15.82739,71.3147
1000.0,1182282.0,-27.53488,71.3243
2154.4346900318824,1229579.0,-122.3469,71.3213
4641.588833612777,243284.6,-78.57563,71.3168
10000.0,98659.4,-80.86482,71.3242
