Frequency,Impedance,Phase Angle,Temperature (Dry Bath)
10.0,28114360.0,-27.79208,68.3851
21.5,26735020.0,-31.78161,68.3607
46.4,15115790.0,-45.67406,68.3721
100.0,5211073.0,-33.39254,68.3768
215.4,9241155.0,-53.52965,68.3804
464.2,2807561.0,-96.51566,68.3585
1000.0,1291165.0,-80.89981,68.3849
2154.4,620666.9,-85.39125,68.3859
4641.6,312923.0,-93.60172,68.3768
10000.0,145410.9,-90.94329,68.3799
