Frequency,Impedance,Phase Angle,Temperature (Dry Bath)
10.0,24362410.0,-9.902394,67.3328
21.5,21634790.0,-49.4111,67.3355
46.4,15451780.0,-50.6207,67.3242
100.0,4409933.0,-25.79088,67.3379
215.4,2129038.0,-40.47239,67.3244
464.2,2259277.0,-114.0216,67.3312
1000.0,1171115.0,-75.90575,67.2931
2154.4,502323.5,-88.73847,67.3099
4641.6,255004.7,-86.82266,67.3031
10000.0,120861.6,-86.33652,67.2949
