Frequency,Impedance,Phase Angle,Temperature (Dry Bath)
10.0,30804210.0,-35.04819,67.0204
21.5,29870180.0,-30.29038,67.0256
46.4,19407390.0,-47.96965,67.0343
100.0,3509904.0,-64.0257,67.0233
215.4,21841260.0,-30.02644,67.0295
464.2,2639705.0,-93.71278,67.0284
1000.0,1720752.0,-86.38829,67.0222
2154.4,531053.1,-89.77471,67.011
4641.6,267630.0,-85.2352,67.0258
10000.0,124205.5,-87.20975,67.0262
