Frequency,Impedance,Phase Angle,Temperature (Dry Bath)
10.0,135834.9,-3.730158,67.0669
21.5,133338.5,-3.410371,67.0786
46.4,131020.9,-3.41164,67.0587
100.0,126911.1,-1.599146,67.0715
215.4,123833.6,-4.281151,67.0838
464.2,121827.4,-6.291524,67.0702
1000.0,117081.5,-11.59495,67.0791
2154.4,111627.2,-16.48106,67.0609
4641.6,96591.62,-28.89885,67.0568
10000.0,75091.76,-44.63446,67.0716
