Frequency,Impedance,Phase Angle,Temperature (Dry Bath)
10.0,27966100.0,-27.03248,67.2134
21.5,23090440.0,-54.304,67.2299
46.4,14757010.0,-61.47087,67.1908
100.0,4418933.0,-73.24577,67.2062
215.4,1959716.0,-102.8891,67.1901
464.2,1787639.0,-75.5693,67.176
1000.0,820679.4,-86.81894,67.1783
2154.4,480933.8,-81.51432,67.1642
4641.6,210802.2,-81.36919,67.1806
10000.0,104902.9,-80.89616,67.1519
