Frequency,Impedance,Phase Angle,Temperature (Dry Bath)
10.0,5583771.0,-19.26858,66.1016
21.544346900318832,4624569.0,-11.90154,66.0971
46.41588833612777,4757286.0,-36.58483,66.1076
100.0,660803.8,-20.62623,66.0891
215.44346900318823,1212532.0,116.3685,66.1003
464.15888336127773,688544.0,-130.8998,66.1087
1000.0,262803.3,-119.9059,66.1142
2154.4346900318824,298240.3,-99.06316,66.0969
4641.588833612777,146952.8,-90.04383,66.1059
10000.0,61496.04,-87.58101,66.108
