Frequency,Impedance,Phase Angle,Temperature (Dry Bath)
10.0,1429060.0,-9.439693,67.9659
21.5,1311202.0,-9.706113,67.951
46.4,1172826.0,-11.29887,67.9615
100.0,963384.8,-11.6604,67.9602
215.4,971579.7,-17.33217,67.9541
464.2,883033.3,-21.29492,67.9553
1000.0,682100.4,-39.69322,67.9513
2154.4,500748.3,-55.5401,67.9514
4641.6,271056.2,-71.47213,67.9508
10000.0,132233.8,-85.92657,67.9627
