Frequency,Impedance,Phase Angle,Temperature (Dry Bath)
10.0,143367.8,-5.04772,68.07
21.5,138684.3,-4.01108,68.0906
46.4,135327.9,-3.885756,68.1094
100.0,125309.0,-3.576775,68.0843
215.4,129170.7,-5.34411,68.0892
464.2,129761.4,-7.204293,68.1035
1000.0,122749.1,-7.629136,68.0832
2154.4,116315.5,-16.83071,68.1068
4641.6,104539.0,-29.24437,68.0726
10000.0,82537.45,-46.39227,68.0962
