Frequency,Impedance,Phase Angle,Temperature (Dry Bath)
10.0,4996587.0,2.508557,71.1742
21.544346900318832,4195083.0,-22.89006,71.1875
46.41588833612777,5882773.0,-26.67289,71.1877
100.0,798551.4,-133.8868,71.1845
215.44346900318823,573788.7,-144.7532,71.1907
464.15888336127773,1200158.0,-95.05019,71.1818
1000.0,530755.8,-80.59932,71.1804
2154.4346900318824,279018.8,-80.08012,71.1755
4641.588833612777,143179.2,-85.10792,71.1997
10000.0,70487.44,-92.25322,71.1825
