Frequency,Impedance,Phase Angle,Temperature (Dry Bath)
10.0,21484290.0,1.902698,68.175
21.5,21586490.0,-32.7807,68.1498
46.4,20547490.0,-42.02396,68.1544
100.0,5202872.0,-77.78165,68.1683
215.4,10569280.0,-169.3373,68.1553
464.2,2795732.0,-81.76614,68.1558
1000.0,1418837.0,-83.95814,68.1625
2154.4,651915.1,-83.63482,68.1757
4641.6,329352.3,-88.83589,68.1491
10000.0,146227.3,-97.34801,68.1688
