Frequency,Impedance,Phase Angle,Temperature (Dry Bath)
10.0,14990940.0,-12.18916,68.1245
21.5,17995540.0,-30.56804,68.1216
46.4,19568420.0,-39.47446,68.1492
100.0,4965756.0,-73.71249,68.1275
215.4,4428830.0,-67.92449,68.13
464.2,3116508.0,-71.05945,68.126
1000.0,1475109.0,-85.55943,68.1277
2154.4,701070.4,-84.80789,68.1212
4641.6,286376.8,-93.15752,68.1114
10000.0,143913.1,-94.05085,68.1274
