Frequency,Impedance,Phase Angle,Temperature (Dry Bath)
10.0,4942203.0,6.058277,65.8192
21.544346900318832,5038929.0,-34.11178,65.8337
46.41588833612777,4031945.0,-27.82962,65.842
100.0,518181.0,146.2437,65.843
215.44346900318823,9756.771,-131.7029,65.8479
464.15888336127773,1324601.0,-126.6808,65.8287
1000.0,497217.7,-73.45137,65.8295
2154.4346900318824,368950.9,-66.62382,65.8496
4641.588833612777,125392.1,-90.86143,65.85
10000.0,79454.65,-79.95546,65.851
