Frequency,Impedance,Phase Angle,Temperature (Dry Bath)
10.0,539035.0,-26.73042,66.418
21.544346900318832,394880.3,-27.27,66.4093
46.41588833612777,316169.2,-24.73416,66.4228
100.0,228973.1,-28.88467,66.4055
215.44346900318823,169053.5,-38.06703,66.4105
464.15888336127773,215755.9,-24.77028,66.3998
1000.0,206318.1,-25.13783,66.4027
2154.4346900318824,123437.8,-38.50086,66.3977
4641.588833612777,71497.87,-50.96715,66.41
10000.0,50102.39,-68.50077,66.4139
