Frequency,Impedance,Phase Angle,Temperature (Dry Bath)
10.0,16109140.0,-20.61634,68.2684
21.5,14125520.0,-25.85704,68.261
46.4,19724130.0,-47.99774,68.258
100.0,5058743.0,-40.49961,68.2602
215.4,3531556.0,-56.20955,68.2692
464.2,2646564.0,-70.62149,68.2716
1000.0,1274654.0,-73.20268,68.2629
2154.4,595684.2,-86.53076,68.2712
4641.6,303268.6,-87.57601,68.2667
10000.0,134539.0,-91.99124,68.2607
