Frequency,Impedance,Phase Angle,Temperature (Dry Bath)
10.0,5993164.0,7.491315,67.3
21.544346900318832,6310550.0,-22.27627,67.3
46.41588833612777,6493527.0,-30.0369,67.3
100.0,3061929.0,-103.3255,67.3
215.44346900318823,1465831.0,51.77216,67.3
464.15888336127773,1130150.0,133.3264,67.3
1000.0,1516366.0,-59.51006,67.3
2154.4346900318824,1944573.0,-28.49755,67.3
4641.588833612777,682730.0,-69.23922,67.3
10000.0,1961518.0,-90.18243,67.3
