Frequency,Impedance,Phase Angle,Temperature (Dry Bath)
10.0,114268.6,-3.118882,67.1465
21.5,111913.5,-2.587257,67.1142
46.4,110391.5,-2.527912,67.1436
100.0,106263.8,-2.300631,67.1684
215.4,136993.8,16.00661,67.133
464.2,106445.8,-5.245818,67.1484
1000.0,101386.1,-8.642696,67.1514
2154.4,98415.1,-14.47837,67.1624
4641.6,87421.1,-25.60399,67.1531
10000.0,68575.03,-41.38314,67.1756
