Frequency,Impedance,Phase Angle,Temperature (Dry Bath)
10.0,224100.0,-23.21772,67.1518
21.5,188761.9,-20.30705,67.1754
46.4,163832.6,-17.66343,67.173
100.0,141847.0,-15.52235,67.1592
215.4,164996.8,-58.59744,67.1561
464.2,120991.3,-14.52424,67.1415
1000.0,108357.7,-16.54796,67.1554
2154.4,96247.19,-22.92477,67.1478
4641.6,80006.52,-30.50463,67.1494
10000.0,60377.93,-41.3987,67.1623
