Frequency,Impedance,Phase Angle,Temperature (Dry Bath)
10.0,29614190.0,-5.950851,67.1294
21.5,26482610.0,-40.42591,67.1455
46.4,15373020.0,-57.67992,67.1387
100.0,3336597.0,-46.8095,67.141
215.4,2733603.0,67.06674,67.117
464.2,2100867.0,-62.65694,67.1342
1000.0,1322730.0,-94.40893,67.1078
2154.4,517921.0,-86.50711,67.1224
4641.6,263379.6,-83.19694,67.1235
10000.0,123264.6,-85.46177,67.1107
