Frequency,Impedance,Phase Angle,Temperature (Dry Bath)
10.0,27997920.0,-17.56038,67.1654
21.5,22610750.0,-29.1894,67.1628
46.4,16451920.0,-56.87275,67.1452
100.0,2384394.0,-31.56922,67.1437
215.4,3711670.0,-68.15382,67.1372
464.2,1864740.0,-72.95976,67.1514
1000.0,1310015.0,-85.94788,67.1578
2154.4,595101.8,-88.52578,67.1632
4641.6,244835.3,-85.96508,67.1476
10000.0,121093.7,-87.27873,67.1692
