Frequency,Impedance,Phase Angle,Temperature (Dry Bath)
10.0,5626476.0,-1.391425,72.0061
21.544346900318832,5297352.0,-9.308921,72.0045
46.41588833612777,4885944.0,-10.80858,72.007
100.0,332489.0,48.51974,71.9934
215.44346900318823,551151.5,40.72998,72.0024
464.15888336127773,388104.9,-46.46559,72.0027
1000.0,508644.1,-155.3169,71.989
2154.4346900318824,1167010.0,92.36282,72.0055
4641.588833612777,111769.3,-88.85286,71.993
10000.0,178744.2,-87.77047,71.9962
