Frequency,Impedance,Phase Angle,Temperature (Dry Bath)
10.0,146733.8,-5.011994,68.0557
21.5,142146.4,-4.200424,68.0413
46.4,138101.4,-3.765529,68.0594
100.0,133653.1,-2.649173,68.0509
215.4,132305.3,-4.00488,68.0524
464.2,129851.1,-8.749541,68.0526
1000.0,123927.9,-10.78982,68.0308
2154.4,121610.0,-16.01205,68.0548
4641.6,108823.7,-26.52978,68.0619
10000.0,84727.92,-45.83241,68.056
