Frequency,Impedance,Phase Angle,Temperature (Dry Bath)
10.0,490203.9,-29.83904,65.724
21.544346900318832,379523.5,-26.98918,65.7007
46.41588833612777,293003.4,-24.83169,65.7212
100.0,484161.8,-36.82988,65.7102
215.44346900318823,4978.236,-139.5516,65.7172
464.15888336127773,217460.2,-31.41441,65.7145
1000.0,124106.7,-43.75369,65.6918
2154.4346900318824,106409.9,-36.40168,65.6994
4641.588833612777,78727.1,-55.19398,65.6981
10000.0,49809.74,-57.24191,65.7007
