Frequency,Impedance,Phase Angle,Temperature (Dry Bath)
10.0,5731389.0,8.86318,71.2677
21.544346900318832,5953541.0,-7.457434,71.2863
46.41588833612777,4821114.0,3.081018,71.276
100.0,1005046.0,-56.30372,71.2772
215.44346900318823,1026885.0,-163.187,71.2858
464.15888336127773,768571.8,-48.33378,71.2802
1000.0,702218.1,-84.5644,71.256
2154.4346900318824,504208.1,-96.54159,71.2673
4641.588833612777,221780.5,-57.53515,71.2759
10000.0,142488.9,-89.93935,71.2713
