Frequency,Impedance,Phase Angle,Temperature (Dry Bath)
10.0,22952980.0,-27.65015,67.996
21.5,30110750.0,-35.36245,67.9822
46.4,29353050.0,-41.23222,67.9873
100.0,6674976.0,-46.66781,68.0037
215.4,9777302.0,-41.81409,67.994
464.2,2392266.0,-94.80246,67.9733
1000.0,1366470.0,-78.87897,67.9826
2154.4,618528.2,-87.10054,67.9861
4641.6,306299.2,-86.60663,67.9996
10000.0,142813.7,-94.05101,67.9709
