Frequency,Impedance,Phase Angle,Temperature (Dry Bath)
10.0,32178950.0,-34.7096,67.3741
21.5,33821880.0,-28.64022,67.3708
46.4,19944890.0,-62.92296,67.3646
100.0,15308340.0,13.70104,67.3666
215.4,231220.4,30.15473,67.3598
464.2,2471825.0,-81.33356,67.3624
1000.0,1079214.0,-88.81392,67.3497
2154.4,545917.0,-88.91524,67.3278
4641.6,248737.9,-87.46774,67.3444
10000.0,120215.3,-86.3893,67.3341
