Frequency,Impedance,Phase Angle,Temperature (Dry Bath)
10.0,19779970.0,-25.24269,68.023
21.5,15560840.0,-37.48169,68.0219
46.4,28064120.0,-58.30339,68.0285
100.0,5103717.0,-48.25986,68.0364
215.4,5839391.0,-71.75295,68.0027
464.2,2284028.0,-79.08899,68.0366
1000.0,1395061.0,-86.84422,68.0257
2154.4,571783.9,-86.17644,68.0322
4641.6,258772.6,-90.53562,68.0319
10000.0,124355.9,-96.10179,68.0096
