Frequency,Impedance,Phase Angle,Temperature (Dry Bath)
10.0,54661.34,-20.36772,71.6657
21.544346900318832,46451.76,-19.88181,71.6786
46.41588833612777,39671.7,-19.67922,71.6673
100.0,32113.38,-20.98747,71.6695
215.44346900318823,28310.88,-18.9007,71.6634
464.15888336127773,26362.96,-17.3653,71.6649
1000.0,21776.43,-15.66902,71.6621
2154.4346900318824,19375.26,-13.88444,71.6714
4641.588833612777,17570.49,-12.88831,71.6694
10000.0,16019.49,-17.2742,71.6622
