Frequency,Impedance,Phase Angle,Temperature (Dry Bath)
10.0,7354963.0,0.2763633,67.4487
21.5,271917.6,-1.834525,67.4315
46.4,128663.5,-3.067501,67.437
100.0,124260.0,-5.182701,67.4343
215.4,145251.9,30.47453,67.4393
464.2,2615917.0,-80.09413,67.4284
1000.0,1240229.0,-86.1447,67.4398
2154.4,583076.8,-81.05072,67.4335
4641.6,245696.8,-84.50243,67.4517
10000.0,127191.3,-84.324,67.4583
