Frequency,Impedance,Phase Angle,Temperature (Dry Bath)
10.0,5652831.0,5.000818,66.3818
21.544346900318832,4561768.0,-11.14179,66.4017
46.41588833612777,4675175.0,-14.07826,66.4166
100.0,522376.0,-32.14254,66.394
215.44346900318823,1370849.0,93.29876,66.3981
464.15888336127773,750500.6,-44.14873,66.408
1000.0,689522.2,-64.26684,66.3958
2154.4346900318824,258523.9,-92.5823,66.4144
4641.588833612777,129872.3,-66.8272,66.4099
10000.0,59132.19,-74.75528,66.4051
