Frequency,Impedance,Phase Angle,Temperature (Dry Bath)
10.0,111609.2,-15.59371,68.0119
21.5,100179.1,-13.25935,68.0162
46.4,91094.91,-11.77873,68.0169
100.0,81348.82,-10.65955,68.0244
215.4,78948.23,-11.01742,68.0308
464.2,73895.64,-9.791948,68.04
1000.0,68172.31,-11.24191,68.0157
2154.4,65354.19,-15.03563,68.0301
4641.6,58906.12,-21.61224,68.0231
10000.0,50871.97,-33.41244,68.0174
