Frequency,Impedance,Phase Angle,Temperature (Dry Bath)
10.0,1539480.0,-16.05762,67.9967
21.5,1393114.0,-14.8421,67.9773
46.4,1213245.0,-14.42421,67.9637
100.0,1187968.0,-17.20368,67.972
215.4,1111363.0,-14.49528,67.961
464.2,848511.8,-20.75542,67.9858
1000.0,802598.7,-38.69474,67.9664
2154.4,520717.9,-53.37881,67.9595
4641.6,264419.4,-73.07293,67.9624
10000.0,133367.5,-86.31112,67.9711
