Frequency,Impedance,Phase Angle,Temperature (Dry Bath)
10.0,53161.76,-33.8233,67.1543
21.5,40988.57,-29.93722,67.1704
46.4,33100.14,-26.19664,67.1719
100.0,27697.76,-22.88441,67.194
215.4,27196.5,-5.084623,67.1375
464.2,21255.8,-16.28892,67.1872
1000.0,19031.45,-14.0365,67.1825
2154.4,17341.89,-12.84672,67.1774
4641.6,15903.05,-12.60593,67.1656
10000.0,14665.16,-14.78666,67.1752
