Frequency,Impedance,Phase Angle,Temperature (Dry Bath)
10.0,24572540.0,-33.63216,67.2654
21.5,18564780.0,-33.39496,67.2754
46.4,13973700.0,-60.31406,67.2764
100.0,4731913.0,-44.46794,67.3053
215.4,3131253.0,-95.43529,67.282
464.2,2055865.0,-75.26253,67.2994
1000.0,905269.3,-77.68221,67.2993
2154.4,429606.1,-76.41466,67.2953
4641.6,213446.8,-79.30725,67.2953
10000.0,112660.7,-79.14899,67.2917
