Frequency,Impedance,Phase Angle,Temperature (Dry Bath)
10.0,24078700.0,-22.04961,68.0809
21.5,36822510.0,-11.66794,68.0619
46.4,47287160.0,-53.4761,68.0634
100.0,19518760.0,-88.77142,68.0765
215.4,6210679.0,-89.1184,68.0482
464.2,3191827.0,-85.90898,68.06
1000.0,1422340.0,-83.05865,68.0463
2154.4,744909.8,-84.78904,68.0636
4641.6,325794.2,-95.17796,68.0601
10000.0,157568.4,-95.10798,68.0727
