Frequency,Impedance,Phase Angle,Temperature (Dry Bath)
10.0,1579795.0,-19.4139,67.0754
21.5,1377067.0,-16.74359,67.0825
46.4,1254384.0,-15.71891,67.071
100.0,1011846.0,-15.92719,67.0635
215.4,1546566.0,-7.191774,67.0892
464.2,892313.4,-35.60532,67.0699
1000.0,730215.1,-51.5799,67.0756
2154.4,404126.0,-65.37474,67.076
4641.6,214204.3,-74.62606,67.0902
10000.0,110607.2,-78.31417,67.0701
