Frequency,Impedance,Phase Angle,Temperature (Dry Bath)
10.0,5614304.0,-21.20486,71.3263
21.544346900318832,3495292.0,-32.15056,71.343
46.41588833612777,4370842.0,-11.80317,71.3302
100.0,710161.4,130.3393,71.3324
215.44346900318823,12439.02,-94.66562,71.3364
464.15888336127773,1039015.0,97.7774,71.3136
1000.0,484121.8,-124.5568,71.3202
2154.4346900318824,351599.1,-80.03431,71.3078
4641.588833612777,130899.1,-95.00692,71.3299
10000.0,63944.14,-84.32584,71.3154
