Frequency,Impedance,Phase Angle,Temperature (Dry Bath)
10.0,1429668.0,-15.29672,68.0165
21.5,1310660.0,-14.42999,67.9995
46.4,1172629.0,-13.31732,68.0024
100.0,965103.8,-8.217766,68.0073
215.4,827455.8,-15.21646,68.0027
464.2,895081.0,-22.30279,68.0203
1000.0,708245.0,-38.85713,68.0132
2154.4,475362.6,-55.06197,68.0089
4641.6,272535.0,-76.11595,68.0334
10000.0,136239.1,-84.86173,68.01
