Frequency,Impedance,Phase Angle,Temperature (Dry Bath)
10.0,49642500.0,10.86725,67.9389
21.5,44996240.0,-15.24881,67.9769
46.4,38449580.0,-49.44355,67.9647
100.0,11401250.0,-76.89804,67.9637
215.4,7242292.0,-68.99207,67.9624
464.2,3162218.0,-82.73788,67.9587
1000.0,1319076.0,-86.78654,67.9607
2154.4,647268.8,-89.65145,67.9497
4641.6,306530.3,-89.03594,67.9624
10000.0,140224.0,-96.3635,67.9705
