Frequency,Impedance,Phase Angle,Temperature (Dry Bath)
10.0,1630527.0,-20.12714,65.6963
21.544346900318832,1646833.0,-27.96945,65.7054
46.41588833612777,1225749.0,-23.77493,65.7097
100.0,574647.7,-53.42784,65.7013
215.44346900318823,34351.65,-149.7395,65.6894
464.15888336127773,930997.9,-6.199043,65.6998
1000.0,1268788.0,-49.60706,65.6846
2154.4346900318824,295989.3,-92.00237,65.6932
4641.588833612777,110877.6,-85.72756,65.6967
10000.0,73034.55,-84.47935,65.6941
