Frequency,Impedance,Phase Angle,Temperature (Dry Bath)
10.0,318916.6,-23.39939,65.8168
21.544346900318832,267816.3,-21.07346,65.8133
46.41588833612777,223241.6,-20.25085,65.8116
100.0,210083.3,-27.38536,65.8033
215.44346900318823,220437.7,7.144917,65.8056
464.15888336127773,134528.1,-17.75447,65.8071
1000.0,114059.1,-26.35101,65.8016
2154.4346900318824,109046.6,-32.18571,65.8085
4641.588833612777,76892.48,-34.53102,65.805
10000.0,48434.77,-59.4579,65.8034
