Frequency,Impedance,Phase Angle,Temperature (Dry Bath)
10.0,37357210.0,-15.05883,67.682
21.5,38578980.0,-9.350839,67.6951
46.4,38950950.0,-53.65862,67.6836
100.0,8997210.0,-32.35857,67.6763
215.4,7567061.0,-44.89729,67.6789
464.2,2521195.0,-86.86129,67.6682
1000.0,1330328.0,-82.8599,67.6805
2154.4,607500.8,-87.34054,67.6519
4641.6,318336.1,-94.00365,67.6571
10000.0,149128.4,-92.37155,67.6765
