Frequency,Impedance,Phase Angle,Temperature (Dry Bath)
10.0,109748.9,-3.121268,67.367
21.5,107797.5,-2.606494,67.3578
46.4,105720.1,-2.306435,67.3507
100.0,103186.9,-2.996895,67.366
215.4,111312.2,10.30333,67.3622
464.2,101880.5,-5.148865,67.3657
1000.0,98903.1,-7.138411,67.343
2154.4,95053.29,-13.22229,67.3454
4641.6,85662.58,-24.05265,67.3504
10000.0,69051.47,-39.07562,67.3512
