Frequency,Impedance,Phase Angle,Temperature (Dry Bath)
10.0,52321790.0,-2.047773,67.749
21.5,45630950.0,-26.29834,67.7703
46.4,24070730.0,-52.3015,67.7669
100.0,7690108.0,-32.32068,67.7424
215.4,5985849.0,-99.65396,67.7631
464.2,2375669.0,-95.31889,67.7527
1000.0,1225753.0,-82.3488,67.7709
2154.4,617603.4,-82.66728,67.7643
4641.6,295572.3,-86.30617,67.7617
10000.0,128484.4,-92.19804,67.7735
