Frequency,Impedance,Phase Angle,Temperature (Dry Bath)
10.0,4393031.0,-24.71716,71.4157
21.544346900318832,5493781.0,-10.97908,71.3927
46.41588833612777,5629880.0,63.99175,71.3807
100.0,573562.2,-82.78714,71.4055
215.44346900318823,46387.83,30.54185,71.3964
464.15888336127773,550543.9,-107.8501,71.4161
1000.0,389139.5,-105.3627,71.4025
2154.4346900318824,345420.8,-113.9367,71.3998
4641.588833612777,111329.0,-94.10689,71.4126
10000.0,60001.93,-83.91559,71.4015
