Frequency,Impedance,Phase Angle,Temperature (Dry Bath)
10.0,23618280.0,-22.42364,68.0644
21.5,23959170.0,-35.92307,68.0547
46.4,24760010.0,-56.95784,68.0713
100.0,12659870.0,-40.1621,68.0636
215.4,4385618.0,-76.47065,68.0582
464.2,2663969.0,-94.57142,68.0614
1000.0,1319732.0,-85.86336,68.0719
2154.4,584563.4,-85.26081,68.0714
4641.6,284208.2,-89.37295,68.0682
10000.0,135572.9,-97.83363,68.0622
