Frequency,Impedance,Phase Angle,Temperature (Dry Bath)
10.0,7620757.0,-5.159875,65.7766
21.544346900318832,7088184.0,13.17765,65.7806
46.41588833612777,4362660.0,-38.13466,65.7682
100.0,577791.4,16.27286,65.7771
215.44346900318823,15754.41,53.28612,65.7688
464.15888336127773,1297049.0,-2.308439,65.7836
1000.0,499717.0,-82.59927,65.779
2154.4346900318824,263206.8,-76.81827,65.7857
4641.588833612777,139264.5,-86.20289,65.7737
10000.0,75610.21,-63.17164,65.7798
