Frequency,Impedance,Phase Angle,Temperature (Dry Bath)
10.0,24990100.0,-18.31226,67.2449
21.5,26824380.0,-36.96414,67.2527
46.4,14579660.0,-54.68999,67.2637
100.0,4631543.0,4.965077,67.2581
215.4,590984.2,41.45259,67.2678
464.2,2013232.0,-83.36211,67.257
1000.0,1248274.0,-87.07629,67.2574
2154.4,559878.5,-83.97009,67.2419
4641.6,259383.9,-88.38184,67.2606
10000.0,126759.1,-86.625,67.2618
