Frequency,Impedance,Phase Angle,Temperature (Dry Bath)
10.0,4907096.0,-6.099452,70.8884
21.544346900318832,4818012.0,0.01259221,70.9125
46.41588833612777,5022403.0,-13.59498,70.9071
100.0,711070.5,-87.61782,70.9032
215.44346900318823,736199.4,-133.9178,70.896
464.15888336127773,816217.4,-19.24126,70.905
1000.0,522315.7,-64.06122,70.9043
2154.4346900318824,343733.9,-74.61296,70.9129
4641.588833612777,139690.2,-69.25872,70.911
10000.0,62536.15,-95.43721,70.9101
