Frequency,Impedance,Phase Angle,Temperature (Dry Bath)
10.0,6198914.0,-0.2018007,71.1804
21.544346900318832,5519245.0,-0.4597152,71.1934
46.41588833612777,8259294.0,0.07831257,71.1992
100.0,424930.1,-154.9257,71.2049
215.44346900318823,3189624.0,-42.90951,71.1981
464.15888336127773,383379.1,-160.0276,71.2023
1000.0,463247.4,-95.73789,71.2005
2154.4346900318824,276023.3,-110.9087,71.2303
4641.588833612777,183610.3,-97.00668,71.2198
10000.0,62195.07,-87.86413,71.2246
