Frequency,Impedance,Phase Angle,Temperature (Dry Bath)
10.0,3145092.0,9.38076,71.1376
21.544346900318832,5596523.0,-38.89964,71.1539
46.41588833612777,4060287.0,-1.088566,71.1515
100.0,361480.8,-94.76149,71.1435
215.44346900318823,434497.5,-62.25934,71.1544
464.15888336127773,1762326.0,-119.3833,71.1669
1000.0,326303.6,-146.0122,71.1528
2154.4346900318824,310010.4,-78.95156,71.1623
4641.588833612777,138784.3,-77.9673,71.1497
10000.0,58641.46,-89.17847,71.1584
