Frequency,Impedance,Phase Angle,Temperature (Dry Bath)
10.0,37840150.0,-9.137919,67.37
21.5,25434710.0,-32.26301,67.3593
46.4,18487930.0,-49.23288,67.3683
100.0,30295890.0,-63.67466,67.357
215.4,2906179.0,-49.97308,67.3601
464.2,2506511.0,-73.90989,67.3635
1000.0,1008584.0,-86.41277,67.3552
2154.4,538482.5,-90.71188,67.3613
4641.6,254556.0,-87.52061,67.37
10000.0,120397.0,-87.16174,67.3711
