Frequency,Impedance,Phase Angle,Temperature (Dry Bath)
10.0,104251.9,-3.127738,67.0845
21.5,102236.6,-2.622013,67.1185
46.4,100531.5,-2.515141,67.0911
100.0,99776.94,-2.681147,67.1009
215.4,98143.46,-3.034828,67.0977
464.2,95847.61,-4.423593,67.093
1000.0,91409.62,-8.485099,67.0864
2154.4,90783.15,-13.46707,67.1061
4641.6,79300.07,-23.07121,67.0946
10000.0,65624.49,-39.1738,67.1103
