Frequency,Impedance,Phase Angle,Temperature (Dry Bath)
10.0,25233010.0,-23.15324,68.0365
21.5,26978630.0,-18.31902,68.0463
46.4,28855570.0,-47.32443,68.0445
100.0,7177201.0,16.88673,68.05
215.4,4010107.0,-59.81538,68.0513
464.2,2394653.0,-83.78078,68.0475
1000.0,1263045.0,-77.25704,68.0426
2154.4,662318.7,-88.79809,68.0541
4641.6,320506.6,-85.52759,68.0435
10000.0,141077.7,-97.51067,68.0484
