Frequency,Impedance,Phase Angle,Temperature (Dry Bath)
10.0,29721820.0,-21.13043,68.2097
21.5,19271170.0,-39.38477,68.2181
46.4,28214510.0,-48.38783,68.228
100.0,6989469.0,-57.53637,68.2364
215.4,3883472.0,-85.86361,68.2164
464.2,2092700.0,-100.9595,68.2134
1000.0,1498369.0,-75.75915,68.2253
2154.4,687282.6,-86.31876,68.2269
4641.6,288266.7,-89.7077,68.2245
10000.0,148176.1,-93.29291,68.2234
