Frequency,Impedance,Phase Angle,Temperature (Dry Bath)
10.0,8839790.0,-15.47902,65.8092
21.544346900318832,3996558.0,-24.74575,65.8008
46.41588833612777,5523525.0,-18.89321,65.8027
100.0,420535.4,-19.1403,65.7812
215.44346900318823,464989.4,148.0252,65.7988
464.15888336127773,664303.3,-38.232,65.7943
1000.0,356773.7,-99.44192,65.7921
2154.4346900318824,253014.1,-88.73682,65.8025
4641.588833612777,127863.4,-70.85709,65.804
10000.0,67610.48,-76.61752,65.7949
