Frequency,Impedance,Phase Angle,Temperature (Dry Bath)
10.0,175234.5,-22.08445,67.6728
21.5,149055.6,-19.05825,67.6412
46.4,130593.3,-16.58602,67.6615
100.0,116370.8,-15.71189,67.6568
215.4,105222.7,-12.10488,67.678
464.2,97659.67,-13.27794,67.6856
1000.0,88447.07,-15.32412,67.6888
2154.4,82742.12,-17.77952,67.6742
4641.6,71150.44,-26.24276,67.6825
10000.0,55248.63,-37.8052,67.6772
