Frequency,Impedance,Phase Angle,Temperature (Dry Bath)
10.0,1283526.0,-9.955946,67.1245
21.5,1195008.0,-11.04385,67.1245
46.4,1088074.0,-13.59321,67.1315
100.0,905785.3,-24.60599,67.1206
215.4,807756.8,-15.9052,67.14
464.2,688349.6,-30.39849,67.1335
1000.0,559257.3,-53.36893,67.1367
2154.4,328347.0,-59.10761,67.126
4641.6,182841.4,-65.85349,67.1425
10000.0,97602.51,-71.16573,67.1276
