Frequency,Impedance,Phase Angle,Temperature (Dry Bath)
10.0,11997.52,-4.916054,67.0808
21.5,11727.39,-4.215684,67.0623
46.4,11558.89,-4.279356,67.0902
100.0,11418.03,-4.487686,67.078
215.4,11324.57,-4.593669,67.0754
464.2,11162.04,-4.7525,67.071
1000.0,10891.87,-4.902182,67.0765
2154.4,10590.1,-5.359889,67.0864
4641.6,10263.03,-6.594034,67.0809
10000.0,9962.49,-10.02991,67.0901
