Frequency,Impedance,Phase Angle,Temperature (Dry Bath)
10.0,942971.6,-22.57798,70.9685
21.544346900318832,775575.0,-25.80368,70.945
46.41588833612777,657418.4,-24.90537,70.9485
100.0,461502.9,-66.39972,70.9453
215.44346900318823,340759.1,-26.64069,70.9543
464.15888336127773,350118.6,-48.28752,70.9471
1000.0,342401.6,-61.25561,70.953
2154.4346900318824,173842.2,-54.81692,70.943
4641.588833612777,78050.65,-77.85423,70.9462
10000.0,49250.6,-74.40851,70.9541
