Frequency,Impedance,Phase Angle,Temperature (Dry Bath)
10.0,166355.6,-6.337753,67.6454
21.5,159223.4,-5.267637,67.6447
46.4,154397.1,-4.949232,67.6636
100.0,145131.9,-5.258857,67.6409
215.4,140327.5,-5.512191,67.6623
464.2,139367.8,-7.691673,67.6547
1000.0,134611.0,-11.85876,67.6561
2154.4,119598.5,-21.28482,67.6566
4641.6,105769.7,-35.28552,67.6494
10000.0,75740.89,-55.02597,67.6627
