Frequency,Impedance,Phase Angle,Temperature (Dry Bath)
10.0,25842720.0,-20.45633,67.1435
21.5,19891100.0,-34.29144,67.1536
46.4,18197640.0,-57.99762,67.1403
100.0,10019830.0,-69.15107,67.1624
215.4,8890263.0,130.1375,67.1584
464.2,1584663.0,-87.54819,67.1398
1000.0,798181.3,-83.18196,67.1425
2154.4,479481.7,-82.00008,67.1756
4641.6,227584.0,-85.39193,67.1429
10000.0,110684.1,-82.25584,67.1793
