Frequency,Impedance,Phase Angle,Temperature (Dry Bath)
10.0,6842.184,-23.98107,70.9154
21.544346900318832,5702.047,-20.66549,70.9209
46.41588833612777,4902.336,-17.95454,70.9381
100.0,4271.544,-15.82621,70.9183
215.44346900318823,3827.755,-13.54626,70.9333
464.15888336127773,3444.084,-12.12994,70.9357
1000.0,3129.029,-10.7995,70.9191
2154.4346900318824,2883.822,-9.414141,70.948
4641.588833612777,2699.817,-8.731398,70.9296
10000.0,2539.882,-8.873084,70.9163
