Frequency,Impedance,Phase Angle,Temperature (Dry Bath)
10.0,13312.37,-28.49812,71.002
21.544346900318832,10566.73,-25.78394,70.9974
46.41588833612777,8591.433,-22.92359,70.998
100.0,7126.979,-20.15765,70.9992
215.44346900318823,6116.869,-17.21506,70.9988
464.15888336127773,5393.529,-14.97744,71.0
1000.0,4779.586,-13.30757,71.0046
2154.4346900318824,4344.678,-12.56727,70.9927
4641.588833612777,3982.147,-11.9069,70.9941
10000.0,3630.424,-12.70058,71.008
