Frequency,Impedance,Phase Angle,Temperature (Dry Bath)
10.0,17963300.0,-15.87956,68.1631
21.5,17051870.0,-48.27333,68.1667
46.4,12183290.0,-50.88413,68.1679
100.0,8439397.0,-56.52682,68.1773
215.4,2979505.0,-68.01881,68.1712
464.2,1724274.0,-83.38246,68.1824
1000.0,892112.1,-75.85287,68.1586
2154.4,510249.9,-79.38911,68.1691
4641.6,253957.2,-84.04629,68.1736
10000.0,127497.9,-95.29861,68.1824
