Frequency,Impedance,Phase Angle,Temperature (Dry Bath)
10.0,138519.7,-5.82567,67.1122
21.5,133339.6,-4.988997,67.1058
46.4,128932.7,-4.697091,67.1042
100.0,121080.0,-4.678039,67.1317
215.4,373909.1,-18.21555,67.1221
464.2,118477.1,-7.015861,67.1221
1000.0,111574.6,-12.28452,67.1198
2154.4,100496.2,-21.08419,67.1181
4641.6,86110.95,-35.23919,67.1388
10000.0,61168.92,-51.28117,67.1322
