Frequency,Impedance,Phase Angle,Temperature (Dry Bath)
10.0,699335.3,-10.90248,68.189
21.5,660184.1,-10.65676,68.1687
46.4,621239.8,-10.86631,68.1997
100.0,560172.8,-12.09906,68.1794
215.4,476541.1,-18.5194,68.1836
464.2,429817.2,-23.81708,68.184
1000.0,370848.8,-31.05161,68.1968
2154.4,267758.9,-41.47,68.1758
4641.6,185090.2,-52.71338,68.1791
10000.0,122270.1,-65.4822,68.1833
