Frequency,Impedance,Phase Angle,Temperature (Dry Bath)
10.0,30495580.0,-22.42539,67.1013
21.5,23529060.0,-38.11818,67.1116
46.4,13635480.0,-61.02208,67.0925
100.0,4151968.0,-149.6949,67.0976
215.4,8445532.0,-40.61974,67.1061
464.2,1621819.0,-79.04197,67.1059
1000.0,1088077.0,-72.80519,67.099
2154.4,415725.4,-82.42132,67.0998
4641.6,223384.3,-82.81846,67.0931
10000.0,107849.7,-84.46385,67.1101
