Frequency,Impedance,Phase Angle,Temperature (Dry Bath)
10.0,3446502.0,-15.7053,71.0794
21.544346900318832,5048624.0,-17.24638,71.0721
46.41588833612777,3547915.0,-28.11099,71.0773
100.0,719992.2,-8.10315,71.08
215.44346900318823,1469909.0,-57.76448,71.0796
464.15888336127773,687636.1,-34.30629,71.063
1000.0,262761.4,-110.247,71.07
2154.4346900318824,247027.5,-102.0975,71.0674
4641.588833612777,116440.3,-85.67948,71.0676
10000.0,59476.75,-85.98659,71.0773
