Frequency,Impedance,Phase Angle,Temperature (Dry Bath)
10.0,240350.5,-5.523631,67.1675
21.5,232788.8,-5.598873,67.1619
46.4,224405.3,-5.99326,67.1578
100.0,242939.6,-7.724703,67.1576
215.4,208367.3,-3.362577,67.1647
464.2,189800.0,-14.45981,67.1567
1000.0,171981.9,-24.61242,67.1563
2154.4,144041.3,-34.96619,67.1585
4641.6,97514.4,-49.27839,67.1544
10000.0,59218.85,-59.333,67.1541
