Frequency,Impedance,Phase Angle,Temperature (Dry Bath)
10.0,5538444.0,-5.785667,71.5021
21.544346900318832,5420573.0,0.9665998,71.5159
46.41588833612777,6103492.0,-7.033321,71.4923
100.0,282339.7,15.74016,71.5085
215.44346900318823,1701337.0,56.06517,71.493
464.15888336127773,3185447.0,-60.08792,71.5053
1000.0,604002.7,-46.62218,71.4911
2154.4346900318824,725453.5,-88.19363,71.4862
4641.588833612777,407091.8,-56.41701,71.493
10000.0,127953.2,-75.07394,71.4743
