Frequency,Impedance,Phase Angle,Temperature (Dry Bath)
10.0,32107880.0,-20.74967,67.374
21.5,21218550.0,-31.51736,67.3668
46.4,14921350.0,-64.24447,67.3694
100.0,3893449.0,2.857014,67.3759
215.4,6962939.0,-76.57857,67.3759
464.2,1882406.0,-83.57194,67.3744
1000.0,1030762.0,-76.99764,67.3772
2154.4,474605.1,-80.53511,67.3777
4641.6,245434.5,-78.63325,67.3825
10000.0,127939.2,-79.03473,67.3786
