Frequency,Impedance,Phase Angle,Temperature (Dry Bath)
10.0,5194641.0,31.77094,65.7367
21.544346900318832,6392997.0,-10.6994,65.7413
46.41588833612777,4023589.0,-27.1668,65.7427
100.0,1688096.0,-12.15593,65.7231
215.44346900318823,199774.5,64.11694,65.7364
464.15888336127773,643383.2,-78.83026,65.7524
1000.0,360154.9,-83.33435,65.7164
2154.4346900318824,250774.8,-74.61615,65.7337
4641.588833612777,149909.6,-90.96826,65.7171
10000.0,62496.3,-91.7587,65.7011
