Frequency,Impedance,Phase Angle,Temperature (Dry Bath)
10.0,138049.3,-6.25297,67.448
21.5,132165.3,-5.317498,67.4255
46.4,127627.3,-4.993578,67.4294
100.0,122230.1,-5.74806,67.4269
215.4,121126.6,-4.80475,67.4381
464.2,115932.4,-7.430328,67.4275
1000.0,111240.7,-12.61557,67.4288
2154.4,101944.2,-20.12394,67.4258
4641.6,87268.4,-32.25317,67.4279
10000.0,62254.25,-49.44822,67.4244
