Frequency,Impedance,Phase Angle,Temperature (Dry Bath)
10.0,124452.1,-14.74391,65.714
21.544346900318832,108975.5,-13.38902,65.7081
46.41588833612777,97648.14,-12.78121,65.701
100.0,88889.8,-12.70175,65.7075
215.44346900318823,87783.82,-21.12673,65.7215
464.15888336127773,76034.91,-14.94625,65.6977
1000.0,61502.8,-16.8587,65.7224
2154.4346900318824,57256.4,-24.37736,65.6933
4641.588833612777,50144.36,-36.30183,65.6991
10000.0,32532.37,-46.03175,65.6895
