Frequency,Impedance,Phase Angle,Temperature (Dry Bath)
10.0,12300.7,-4.652953,67.057
21.5,11980.55,-3.817708,67.0604
46.4,11683.08,-3.240044,67.0641
100.0,11519.33,-3.107081,67.0801
215.4,12375.65,-6.170782,67.0663
464.2,11186.35,-3.405941,67.0515
1000.0,10913.85,-3.601017,67.0586
2154.4,10715.34,-4.3179,67.0673
4641.6,10506.04,-6.023866,67.0675
10000.0,10192.25,-9.642061,67.0747
