Frequency,Impedance,Phase Angle,Temperature (Dry Bath)
10.0,115597.4,-25.20305,68.1583
21.5,97224.18,-22.09385,68.1662
46.4,83790.4,-19.0807,68.1655
100.0,71082.94,-17.09256,68.1403
215.4,66630.23,-15.0521,68.1416
464.2,61076.26,-13.68699,68.1541
1000.0,54365.41,-14.13597,68.1562
2154.4,50556.45,-16.91783,68.1435
4641.6,45354.81,-20.96554,68.1428
10000.0,39307.86,-35.03786,68.1581
