Frequency,Impedance,Phase Angle,Temperature (Dry Bath)
10.0,139538.4,-8.248167,67.3734
21.5,132418.5,-7.409192,67.3885
46.4,126496.3,-7.495158,67.3854
100.0,119724.7,-7.354891,67.3994
215.4,115684.9,-8.924141,67.3887
464.2,106585.8,-11.93587,67.3934
1000.0,96549.09,-16.91066,67.3659
2154.4,84602.56,-22.78061,67.3828
4641.6,69891.21,-31.04613,67.3794
10000.0,50878.13,-41.91456,67.3902
