Frequency,Impedance,Phase Angle,Temperature (Dry Bath)
10.0,6521.036,-25.22407,70.9549
21.544346900318832,5356.159,-22.17378,70.9522
46.41588833612777,4517.814,-19.38494,70.9546
100.0,3910.969,-16.97878,70.9593
215.44346900318823,3426.689,-14.54574,70.9426
464.15888336127773,3070.943,-12.62586,70.9648
1000.0,2806.277,-10.43421,70.9602
2154.4346900318824,2589.988,-9.155343,70.9309
4641.588833612777,2424.249,-8.229439,70.9357
10000.0,2296.452,-8.771047,70.9385
