Frequency,Impedance,Phase Angle,Temperature (Dry Bath)
10.0,19452.39,-19.06195,68.2404
21.5,16866.78,-15.71395,68.237
46.4,15084.09,-12.46519,68.239
100.0,13745.24,-9.520031,68.2268
215.4,12918.31,-6.965932,68.2311
464.2,12416.77,-6.408247,68.2294
1000.0,11948.06,-5.072504,68.2292
2154.4,11196.78,-6.078485,68.2343
4641.6,11151.03,-8.85521,68.2326
10000.0,10948.38,-9.818253,68.2297
