Frequency,Impedance,Phase Angle,Temperature (Dry Bath)
10.0,14671.14,-19.43668,70.9969
21.544346900318832,12678.28,-16.7404,71.0097
46.41588833612777,11169.25,-14.63922,71.0081
100.0,10132.09,-12.62264,71.0024
215.44346900318823,9134.001,-11.68365,71.0117
464.15888336127773,8383.571,-9.664498,71.0142
1000.0,7712.82,-10.3422,71.0046
2154.4346900318824,7164.606,-9.997499,71.0073
4641.588833612777,6717.806,-10.96549,71.0008
10000.0,6259.315,-12.94955,71.0177
