Frequency,Impedance,Phase Angle,Temperature (Dry Bath)
10.0,296821.0,-7.657412,67.4955
21.5,281544.6,-7.572244,67.485
46.4,266655.3,-8.4529,67.492
100.0,252001.6,-8.902367,67.4919
215.4,222559.8,-11.17956,67.5111
464.2,220998.7,-16.81495,67.4923
1000.0,194218.2,-23.6801,67.4987
2154.4,151628.7,-35.13943,67.5125
4641.6,105249.2,-44.82423,67.4983
10000.0,68490.53,-55.85551,67.4936
