Frequency,Impedance,Phase Angle,Temperature (Dry Bath)
10.0,1370264.0,-11.65131,68.1664
21.5,1207216.0,-11.26181,68.1583
46.4,1143758.0,-13.20913,68.1326
100.0,914159.0,-16.96951,68.1625
215.4,884281.4,-22.75407,68.143
464.2,803561.1,-33.18798,68.161
1000.0,606704.7,-44.7473,68.1624
2154.4,385785.3,-52.99813,68.1457
4641.6,224582.4,-61.12911,68.1546
10000.0,139221.3,-76.03266,68.1553
