Frequency,Impedance,Phase Angle,Temperature (Dry Bath)
10.0,19902380.0,-8.738088,68.1876
21.5,20410840.0,-36.59862,68.2032
46.4,18061500.0,-50.63143,68.1993
100.0,10724270.0,-71.02417,68.2019
215.4,2414415.0,-66.93263,68.1927
464.2,1877277.0,-87.68262,68.1994
1000.0,856623.2,-83.06971,68.2
2154.4,449572.7,-82.93081,68.1886
4641.6,214838.7,-81.50155,68.2107
10000.0,122295.3,-89.61634,68.2044
