Frequency,Impedance,Phase Angle,Temperature (Dry Bath)
10.0,5453114.0,-7.434319,66.1543
21.544346900318832,5545607.0,-15.29393,66.1735
46.41588833612777,3443579.0,-33.79893,66.1581
100.0,617052.6,-34.83855,66.1661
215.44346900318823,675373.5,-146.1152,66.1691
464.15888336127773,1590504.0,-36.421,66.1727
1000.0,810923.1,-107.9898,66.1557
2154.4346900318824,268333.8,-60.84221,66.1694
4641.588833612777,109034.7,-79.6521,66.1721
10000.0,61265.61,-87.3013,66.1632
