Frequency,Impedance,Phase Angle,Temperature (Dry Bath)
10.0,24620100.0,-5.151905,67.7358
21.5,62263830.0,-31.74613,67.7552
46.4,32185850.0,-41.29749,67.7424
100.0,6293427.0,-10.98254,67.7562
215.4,4717124.0,-90.56001,67.7559
464.2,1954132.0,-89.68851,67.7499
1000.0,1035580.0,-85.30604,67.7493
2154.4,558042.4,-79.76328,67.7477
4641.6,289318.5,-85.38924,67.7394
10000.0,147779.5,-87.921,67.7441
