Frequency,Impedance,Phase Angle,Temperature (Dry Bath)
10.0,28604320.0,-12.95247,67.293
21.5,25646000.0,-41.63994,67.2909
46.4,16011810.0,-47.89682,67.3108
100.0,4190870.0,-33.81121,67.2779
215.4,3452026.0,-28.32046,67.298
464.2,1844034.0,-87.03802,67.2889
1000.0,939355.3,-84.29622,67.2822
2154.4,484007.2,-82.75286,67.2981
4641.6,221118.3,-83.14917,67.2954
10000.0,110441.5,-80.43271,67.282
