Frequency,Impedance,Phase Angle,Temperature (Dry Bath)
10.0,9834445.0,-42.83162,71.1691
21.544346900318832,4068953.0,-16.62683,71.1839
46.41588833612777,7164493.0,-16.11585,71.1664
100.0,604974.0,-69.90701,71.1762
215.44346900318823,1185372.0,-47.45515,71.1723
464.15888336127773,624224.5,79.52716,71.1681
1000.0,1133739.0,-36.21106,71.1693
2154.4346900318824,321987.6,-62.26216,71.1781
4641.588833612777,110503.7,-75.54518,71.1573
10000.0,63781.29,-83.88192,71.1809
