Frequency,Impedance,Phase Angle,Temperature (Dry Bath)
10.0,5060491.0,-29.92208,70.6043
21.544346900318832,4895713.0,-9.578652,70.5915
46.41588833612777,4515397.0,-18.36715,70.6002
100.0,779977.1,75.52833,70.5946
215.44346900318823,1289336.0,167.9,70.6012
464.15888336127773,1153755.0,13.42238,70.6054
1000.0,259865.9,-55.10706,70.5959
2154.4346900318824,318342.0,-59.83611,70.6017
4641.588833612777,198160.9,-82.47586,70.6036
10000.0,69974.24,-83.60157,70.5963
