Frequency,Impedance,Phase Angle,Temperature (Dry Bath)
10.0,6169039.0,-19.04017,71.3714
21.544346900318832,6046559.0,-8.935843,71.3652
46.41588833612777,4920450.0,-11.51585,71.371
100.0,2282770.0,109.2991,71.3702
215.44346900318823,1565144.0,-90.80466,71.3679
464.15888336127773,1378858.0,-139.5219,71.3595
1000.0,1527413.0,-74.40246,71.3542
2154.4346900318824,474204.0,-72.95286,71.3605
4641.588833612777,302391.9,-87.39194,71.3691
10000.0,103336.8,-81.58925,71.3876
