Frequency,Impedance,Phase Angle,Temperature (Dry Bath)
10.0,19269110.0,-12.02286,68.1802
21.5,26056360.0,-43.9744,68.1644
46.4,18361210.0,-60.74605,68.1613
100.0,6898445.0,-28.69549,68.1614
215.4,2859069.0,-79.97646,68.1555
464.2,1604355.0,-72.20063,68.1804
1000.0,933256.3,-72.55172,68.1701
2154.4,523912.4,-75.66528,68.1762
4641.6,286566.3,-79.28668,68.1551
10000.0,133020.3,-90.11341,68.1686
