Frequency,Impedance,Phase Angle,Temperature (Dry Bath)
10.0,11864.34,-4.460357,67.2579
21.5,11640.03,-3.798996,67.2648
46.4,11456.36,-3.659741,67.269
100.0,11327.92,-3.879497,67.2792
215.4,11152.75,-3.738864,67.2678
464.2,11008.54,-3.865958,67.2641
1000.0,10699.41,-3.81611,67.2685
2154.4,10497.14,-4.265618,67.266
4641.6,10274.56,-5.769171,67.2705
10000.0,10000.76,-9.238741,67.2655
