Frequency,Impedance,Phase Angle,Temperature (Dry Bath)
10.0,17102.93,-24.45561,71.66
21.544346900318832,13784.12,-25.68893,71.6758
46.41588833612777,10946.29,-26.5149,71.6886
100.0,8586.752,-26.2968,71.6769
215.44346900318823,6908.152,-25.12926,71.6716
464.15888336127773,5595.334,-23.32912,71.6707
1000.0,4590.979,-21.17272,71.6801
2154.4346900318824,3882.26,-18.98206,71.6717
4641.588833612777,3346.678,-16.93808,71.6568
10000.0,2949.739,-15.73028,71.6547
