Frequency,Impedance,Phase Angle,Temperature (Dry Bath)
10.0,39833860.0,-11.72278,68.2842
21.5,18491940.0,-46.89248,68.277
46.4,12075880.0,-62.14477,68.2919
100.0,7031439.0,-70.21526,68.2907
215.4,3276378.0,-69.87007,68.2989
464.2,1622121.0,-74.34553,68.2981
1000.0,911206.7,-77.42223,68.286
2154.4,512397.4,-74.89392,68.292
4641.6,291074.3,-81.13714,68.2944
10000.0,137140.5,-86.58397,68.2815
