Frequency,Impedance,Phase Angle,Temperature (Dry Bath)
10.0,138998.1,-5.724004,67.2481
21.5,133776.5,-4.828546,67.2362
46.4,129169.7,-4.631933,67.239
100.0,124887.3,-4.576966,67.2566
215.4,141501.5,-17.42412,67.2534
464.2,117165.3,-8.114883,67.2786
1000.0,114368.9,-11.6108,67.2591
2154.4,103848.1,-18.89351,67.2547
4641.6,87783.58,-32.40736,67.2606
10000.0,62278.69,-51.02567,67.2521
