Frequency,Impedance,Phase Angle,Temperature (Dry Bath)
10.0,650318.5,-9.314136,67.0403
21.5,605066.1,-10.19293,67.0408
46.4,560013.7,-12.33433,67.0384
100.0,467482.8,-12.56265,67.0323
215.4,467925.5,-16.59494,67.0472
464.2,431402.6,-21.15306,67.0507
1000.0,319985.2,-35.92147,67.0609
2154.4,235881.5,-44.7291,67.0355
4641.6,157102.3,-55.68248,67.0157
10000.0,91077.22,-63.58753,67.0385
