Frequency,Impedance,Phase Angle,Temperature (Dry Bath)
10.0,161622.2,-6.303092,67.9981
21.5,155995.7,-5.22783,68.0
46.4,151071.3,-4.825663,67.9943
100.0,145426.3,-6.212057,68.0017
215.4,142739.4,-4.769659,67.9994
464.2,137889.3,-8.169149,67.9966
1000.0,129674.5,-12.26963,67.9921
2154.4,126898.5,-20.04064,68.0003
4641.6,105070.5,-36.07994,67.9983
10000.0,71700.29,-57.29117,67.987
