Frequency,Impedance,Phase Angle,Temperature (Dry Bath)
10.0,7651644.0,-7.946452,71.3135
21.544346900318832,3631929.0,-6.065325,71.3006
46.41588833612777,4507733.0,-21.70911,71.3046
100.0,564707.2,-107.1927,71.3127
215.44346900318823,416021.9,-99.98806,71.3061
464.15888336127773,1108670.0,-176.9966,71.3129
1000.0,1038649.0,-60.1391,71.301
2154.4346900318824,247614.2,-82.68409,71.3157
4641.588833612777,115660.0,-82.55281,71.2964
10000.0,66246.22,-95.67164,71.3076
