Frequency,Impedance,Phase Angle,Temperature (Dry Bath)
10.0,32815950.0,-16.87809,68.1698
21.5,32288060.0,-37.04881,68.1755
46.4,25308700.0,-48.89838,68.1889
100.0,5640780.0,-27.14639,68.1746
215.4,3960232.0,-81.52743,68.179
464.2,1923957.0,-72.28922,68.1795
1000.0,1042192.0,-69.80042,68.1865
2154.4,566478.1,-76.65168,68.1738
4641.6,267733.3,-86.16089,68.1824
10000.0,131932.2,-90.49744,68.1761
