Frequency,Impedance,Phase Angle,Temperature (Dry Bath)
10.0,3993777.0,2.82795,71.3667
21.544346900318832,4603170.0,-19.36999,71.3516
46.41588833612777,5019286.0,1.597042,71.3616
100.0,364194.3,3.618322,71.3564
215.44346900318823,1223897.0,-57.23086,71.3612
464.15888336127773,1891658.0,-121.8018,71.3584
1000.0,582645.5,-48.72721,71.3501
2154.4346900318824,389448.1,-81.18598,71.3614
4641.588833612777,153826.1,-96.39799,71.3572
10000.0,63165.85,-90.29541,71.3545
