Frequency,Impedance,Phase Angle,Temperature (Dry Bath)
10.0,19013260.0,-25.82641,67.2325
21.5,22698710.0,-23.54088,67.2358
46.4,21962180.0,-16.07565,67.2431
100.0,2710362.0,-58.30857,67.2285
215.4,231330.9,-31.85451,67.2282
464.2,2668525.0,-72.42361,67.2291
1000.0,1198919.0,-86.7024,67.2452
2154.4,601221.4,-89.47295,67.2402
4641.6,275694.9,-87.44579,67.2249
10000.0,127282.6,-87.61108,67.2474
