Frequency,Impedance,Phase Angle,Temperature (Dry Bath)
10.0,2155837.0,-7.72089,72.127
21.544346900318832,1987756.0,-0.1640873,72.1411
46.41588833612777,2371710.0,-10.31937,72.1395
100.0,475787.3,-20.82751,72.1306
215.44346900318823,4982805.0,-155.1367,72.1239
464.15888336127773,900108.1,-22.76449,72.1063
1000.0,500920.7,-47.97271,72.1356
2154.4346900318824,186273.9,-117.6969,72.1064
4641.588833612777,209656.7,-91.3467,72.1282
10000.0,115568.3,-103.3081,72.1114
