Frequency,Impedance,Phase Angle,Temperature (Dry Bath)
10.0,5844083.0,-10.16032,65.8085
21.544346900318832,4396782.0,-18.83154,65.8074
46.41588833612777,4709474.0,-16.79891,65.8264
100.0,294956.7,-74.23441,65.8169
215.44346900318823,15948.38,83.11369,65.8101
464.15888336127773,596363.7,-94.3096,65.8187
1000.0,870649.5,-63.92739,65.8187
2154.4346900318824,259891.0,-100.6856,65.8319
4641.588833612777,142301.9,-89.72362,65.8287
10000.0,69261.97,-88.71542,65.8122
