Frequency,Impedance,Phase Angle,Temperature (Dry Bath)
10.0,25597850.0,-30.94357,67.1759
21.5,25038880.0,-32.87342,67.1562
46.4,21016720.0,-82.32101,67.1646
100.0,8179485.0,48.91581,67.1569
215.4,170727.2,-12.58391,67.1643
464.2,1683789.0,-72.84425,67.1676
1000.0,925058.2,-80.24678,67.1539
2154.4,445973.8,-80.81842,67.1687
4641.6,209005.3,-82.09455,67.1647
10000.0,108560.2,-82.62745,67.1832
