Frequency,Impedance,Phase Angle,Temperature (Dry Bath)
10.0,28689810.0,-28.25539,68.0242
21.5,23340610.0,-29.03826,68.0444
46.4,36647560.0,-37.77852,68.0363
100.0,6386793.0,-48.99418,68.0352
215.4,14234540.0,-107.7099,68.0285
464.2,2802022.0,-94.39641,68.0287
1000.0,1347516.0,-79.87369,68.0304
2154.4,678158.8,-88.54323,68.013
4641.6,322899.8,-95.84983,68.0349
10000.0,149540.8,-92.83418,68.0507
