Frequency,Impedance,Phase Angle,Temperature (Dry Bath)
10.0,6675.742,-28.37615,70.5348
21.544346900318832,5275.86,-26.18425,70.5291
46.41588833612777,4270.526,-23.44022,70.5229
100.0,3523.454,-20.54967,70.5345
215.44346900318823,3030.017,-17.91031,70.5112
464.15888336127773,2652.339,-14.67229,70.5535
1000.0,2349.151,-12.66754,70.542
2154.4346900318824,2145.757,-11.11906,70.5379
4641.588833612777,1973.015,-10.1465,70.5337
10000.0,1840.556,-10.39716,70.549
