Frequency,Impedance,Phase Angle,Temperature (Dry Bath)
10.0,8396.014,-41.67603,71.3982
21.544346900318832,5979.868,-37.45825,71.4117
46.41588833612777,4425.751,-32.81608,71.4165
100.0,3407.576,-27.66109,71.4261
215.44346900318823,2770.813,-23.00374,71.3968
464.15888336127773,2335.19,-18.77225,71.4119
1000.0,2038.401,-15.47152,71.4193
2154.4346900318824,1822.453,-12.9695,71.409
4641.588833612777,1651.825,-11.07006,71.3964
10000.0,1527.076,-9.738757,71.399
