Frequency,Impedance,Phase Angle,Temperature (Dry Bath)
10.0,149205.5,-6.25094,68.1949
21.5,143660.7,-5.252319,68.1949
46.4,138173.7,-4.823472,68.1949
100.0,130091.3,-4.665744,68.1949
215.4,129550.3,-5.198439,68.1949
464.2,123851.7,-7.732846,68.1949
1000.0,118689.3,-11.08889,68.1949
2154.4,108725.1,-19.27486,68.1949
4641.6,97991.43,-28.16006,68.1949
10000.0,73639.21,-51.47273,68.1949
