Frequency,Impedance,Phase Angle,Temperature (Dry Bath)
10.0,2268965.0,-9.885668,67.1716
21.5,2023452.0,-11.01148,67.1788
46.4,1919122.0,-13.84037,67.1629
100.0,1119458.0,-21.62239,67.1673
215.4,243452.3,39.49841,67.1517
464.2,1088639.0,-54.1522,67.1661
1000.0,621093.8,-53.62816,67.1597
2154.4,364575.9,-68.07396,67.171
4641.6,199662.8,-69.44,67.1722
10000.0,110295.5,-72.62023,67.1654
