Frequency,Impedance,Phase Angle,Temperature (Dry Bath)
10.0,140322.7,-5.620597,67.1955
21.5,135241.3,-4.709569,67.1891
46.4,131006.3,-4.374945,67.1868
100.0,129780.9,-3.825029,67.1841
215.4,75581.35,-14.17308,67.189
464.2,119755.0,-7.85873,67.1786
1000.0,113992.9,-11.42366,67.2131
2154.4,104739.6,-19.47462,67.1935
4641.6,89678.59,-34.00356,67.1825
10000.0,62184.98,-51.28716,67.1801
