Frequency,Impedance,Phase Angle,Temperature (Dry Bath)
10.0,21646240.0,-2.710798,68.1691
21.5,17586310.0,-33.11574,68.176
46.4,17236300.0,-45.56364,68.1704
100.0,7057131.0,-36.73611,68.1666
215.4,5434763.0,-76.46585,68.1677
464.2,2562023.0,-81.35512,68.1821
1000.0,1425548.0,-99.2589,68.1566
2154.4,719454.5,-87.98107,68.1817
4641.6,293354.9,-92.85568,68.1646
10000.0,145867.7,-95.83532,68.1591
