Frequency,Impedance,Phase Angle,Temperature (Dry Bath)
10.0,1252008.0,-15.05943,65.7362
21.544346900318832,957757.7,-10.5484,65.75
46.41588833612777,977550.2,-9.95438,65.7455
100.0,825055.8,-0.08744608,65.7535
215.44346900318823,10906.82,86.06313,65.7512
464.15888336127773,433667.2,-10.70933,65.753
1000.0,422397.7,-79.05127,65.7546
2154.4346900318824,174225.5,-55.51127,65.7644
4641.588833612777,139262.6,-55.48518,65.75
10000.0,62460.29,-78.95518,65.7416
