Frequency,Impedance,Phase Angle,Temperature (Dry Bath)
10.0,15645150.0,-27.50245,67.9876
21.5,27413170.0,-36.29623,67.9958
46.4,20163220.0,-53.79146,68.0038
100.0,12073780.0,-18.02879,68.0119
215.4,7926314.0,-84.53141,67.9914
464.2,1881319.0,-86.09947,67.9845
1000.0,1160747.0,-82.72723,68.0068
2154.4,522820.1,-84.4222,68.0012
4641.6,278229.4,-79.75345,67.9956
10000.0,153154.6,-85.92875,67.9911
