Frequency,Impedance,Phase Angle,Temperature (Dry Bath)
10.0,138490.9,-5.942245,67.0964
21.5,132700.8,-5.023131,67.1039
46.4,128704.5,-4.713946,67.1158
100.0,123321.8,-3.513917,67.1007
215.4,192474.6,44.60118,67.0975
464.2,117505.6,-9.495471,67.1121
1000.0,111721.0,-12.65837,67.1107
2154.4,101835.3,-19.47991,67.1067
4641.6,86526.64,-34.12478,67.0942
10000.0,61249.48,-51.29711,67.1148
